File: Dados - Compressão/P2 - Mac 02.txt
0
Diameter:	   5.00
   1.00
Area:	  19.6350
GaugeLength:	  50.00
2009-1-1
A3
001
DataNumber:	278
index	Load(kN)	Defor(mm)	Stroke(mm)	Time(s)
    0	  0.0080	  0.0088	   0.009	   0.045
    2	  0.0160	  0.0250	   0.025	   0.145
    4	  0.0100	  0.0412	   0.041	   0.245
    6	  0.0120	  0.0575	   0.057	   0.345
    8	  0.0160	  0.0750	   0.075	   0.445
   10	  0.0240	  0.0912	   0.091	   0.545
   12	  0.0300	  0.1075	   0.107	   0.645
   14	  0.0360	  0.1250	   0.125	   0.745
   16	  0.0300	  0.1412	   0.141	   0.845
   18	  0.0380	  0.1575	   0.157	   0.945
   20	  0.0640	  0.1750	   0.175	   1.045
   22	  0.0910	  0.1912	   0.191	   1.145
   24	  0.1200	  0.2075	   0.207	   1.245
   26	  0.1530	  0.2237	   0.224	   1.345
   28	  0.1900	  0.2412	   0.241	   1.445
   30	  0.2320	  0.2575	   0.257	   1.545
   32	  0.2770	  0.2738	   0.274	   1.645
   34	  0.3240	  0.2912	   0.291	   1.745
   36	  0.3690	  0.3075	   0.308	   1.845
   38	  0.4160	  0.3237	   0.324	   1.945
   40	  0.4630	  0.3413	   0.341	   2.045
   42	  0.5140	  0.3575	   0.357	   2.145
   44	  0.5670	  0.3738	   0.374	   2.245
   46	  0.6250	  0.3912	   0.391	   2.345
   48	  0.6830	  0.4075	   0.407	   2.445
   50	  0.7450	  0.4250	   0.425	   2.545
   52	  0.8060	  0.4412	   0.441	   2.645
   54	  0.8690	  0.4575	   0.457	   2.745
   56	  0.9320	  0.4750	   0.475	   2.845
   58	  0.9960	  0.4912	   0.491	   2.945
   60	  1.0600	  0.5075	   0.507	   3.045
   62	  1.1240	  0.5250	   0.525	   3.145
   64	  1.1880	  0.5412	   0.541	   3.245
   66	  1.2520	  0.5575	   0.558	   3.345
   68	  1.3170	  0.5737	   0.574	   3.445
   70	  1.3830	  0.5913	   0.591	   3.545
   72	  1.4500	  0.6075	   0.607	   3.645
   74	  1.5170	  0.6237	   0.624	   3.745
   76	  1.5860	  0.6413	   0.641	   3.845
   78	  1.6560	  0.6575	   0.657	   3.945
   80	  1.7270	  0.6750	   0.675	   4.045
   82	  1.7990	  0.6912	   0.691	   4.145
   84	  1.8700	  0.7075	   0.707	   4.245
   86	  1.9410	  0.7250	   0.725	   4.345
   88	  2.0130	  0.7412	   0.741	   4.445
   90	  2.0850	  0.7575	   0.757	   4.545
   92	  2.1570	  0.7750	   0.775	   4.645
   94	  2.2300	  0.7912	   0.791	   4.745
   96	  2.3000	  0.8075	   0.808	   4.845
   98	  2.3710	  0.8237	   0.824	   4.945
  100	  2.4400	  0.8413	   0.841	   5.045
  102	  2.5080	  0.8575	   0.857	   5.145
  104	  2.5760	  0.8750	   0.875	   5.245
  106	  2.6430	  0.8912	   0.891	   5.345
  108	  2.7100	  0.9075	   0.907	   5.445
  110	  2.7760	  0.9250	   0.925	   5.545
  112	  2.8430	  0.9412	   0.941	   5.645
  114	  2.9060	  0.9575	   0.957	   5.745
  116	  2.9710	  0.9750	   0.975	   5.845
  118	  3.0330	  0.9912	   0.991	   5.945
  120	  3.0950	  1.0075	   1.007	   6.045
  122	  1.3210	  1.0237	   1.024	   6.145
  124	  1.3700	  1.0400	   1.040	   6.245
  126	  1.4150	  1.0575	   1.058	   6.345
  128	  1.4570	  1.0738	   1.074	   6.445
  130	  1.4980	  1.0912	   1.091	   6.545
  132	  1.5380	  1.1075	   1.107	   6.645
  134	  1.5740	  1.1237	   1.124	   6.745
  136	  1.6090	  1.1413	   1.141	   6.845
  138	  1.6420	  1.1575	   1.158	   6.945
  140	  1.6750	  1.1750	   1.175	   7.045
  142	  1.7070	  1.1912	   1.191	   7.145
  144	  1.7370	  1.2075	   1.207	   7.245
  146	  1.7660	  1.2250	   1.225	   7.345
  148	  1.7950	  1.2412	   1.241	   7.445
  150	  1.8220	  1.2587	   1.259	   7.545
  152	  1.8470	  1.2750	   1.275	   7.645
  154	  1.8710	  1.2912	   1.291	   7.745
  156	  1.8950	  1.3087	   1.309	   7.845
  158	  1.9170	  1.3250	   1.325	   7.945
  160	  1.9400	  1.3412	   1.341	   8.045
  162	  1.9590	  1.3587	   1.359	   8.145
  164	  1.9760	  1.3750	   1.375	   8.245
  166	  1.9850	  1.3925	   1.392	   8.345
  168	  2.0000	  1.4087	   1.409	   8.445
  170	  2.0170	  1.4262	   1.426	   8.545
  172	  2.0330	  1.4425	   1.442	   8.645
  174	  2.0310	  1.4588	   1.459	   8.745
  176	  2.0440	  1.4762	   1.476	   8.845
  178	  2.0580	  1.4925	   1.492	   8.945
  180	  2.0700	  1.5100	   1.510	   9.045
  182	  2.0780	  1.5263	   1.526	   9.145
  184	  2.0070	  1.5425	   1.543	   9.245
  186	  1.9020	  1.5600	   1.560	   9.345
  188	  1.8090	  1.5762	   1.576	   9.445
  190	  1.7150	  1.5938	   1.594	   9.545
  192	  1.6850	  1.6100	   1.610	   9.645
  194	  1.6680	  1.6262	   1.626	   9.745
  196	  1.6530	  1.6437	   1.644	   9.845
  198	  1.6380	  1.6600	   1.660	   9.945
  200	  1.6290	  1.6775	   1.678	  10.045
  202	  1.6220	  1.6937	   1.694	  10.145
  204	  1.6080	  1.7112	   1.711	  10.245
  206	  1.4250	  1.7275	   1.727	  10.345
  208	  1.4250	  1.7437	   1.744	  10.445
  210	  1.4280	  1.7613	   1.761	  10.545
  212	  1.4300	  1.7775	   1.777	  10.645
  214	  1.4330	  1.7950	   1.795	  10.745
  216	  1.4360	  1.8112	   1.811	  10.845
  218	  1.4410	  1.8288	   1.829	  10.945
  220	  1.3830	  1.8450	   1.845	  11.045
  222	  0.9380	  1.8625	   1.862	  11.145
  224	  0.8410	  1.8787	   1.879	  11.245
  226	  0.8360	  1.8950	   1.895	  11.345
  228	  0.8370	  1.9125	   1.912	  11.445
  230	  0.8400	  1.9287	   1.929	  11.545
  232	  0.8430	  1.9462	   1.946	  11.645
  234	  0.8470	  1.9625	   1.962	  11.745
  236	  0.8520	  1.9787	   1.979	  11.845
  238	  0.8560	  1.9962	   1.996	  11.945
  240	  0.8590	  2.0125	   2.013	  12.045
  242	  0.8600	  2.0300	   2.030	  12.145
  244	  0.8630	  2.0462	   2.046	  12.245
  246	  0.8580	  2.0625	   2.062	  12.345
  248	  0.4330	  2.0800	   2.080	  12.445
  250	  0.1190	  2.0963	   2.096	  12.545
  252	  0.1060	  2.1125	   2.112	  12.645
  254	  0.1000	  2.1300	   2.130	  12.745
  256	  0.0960	  2.1463	   2.146	  12.845
  258	  0.0900	  2.1637	   2.164	  12.945
  260	  0.0740	  2.1800	   2.180	  13.045
  262	  0.0660	  2.1962	   2.196	  13.145
  264	  0.0580	  2.2137	   2.214	  13.245
  266	  0.0500	  2.2300	   2.230	  13.345
  268	  0.0430	  2.2475	   2.247	  13.445
  270	  0.0390	  2.2637	   2.264	  13.545
  272	  0.0350	  2.2800	   2.280	  13.645
  274	  0.0350	  2.2975	   2.297	  13.745
  276	  0.0240	  2.3138	   2.314	  13.845
  277	  0.0230	  2.3225	   2.322	  13.895
ControlMode:	0
Rate:	 10.0000
(null)
4
step	1
0
5.000000
0.000000
1
1
0.500000
2
step	2
1
5.000000
0.000000
1
1
2.000000
3
step	3
5
2.000000
0.000000
1
0
30
4
step	4
8
0.000000
0.000000
0
0
0.000000
0
2