File: Dados - Compressão/P2 - Mac 04.txt
0
Diameter:	   5.00
   1.00
Area:	  19.6350
GaugeLength:	  50.00
2009-1-1
A3
001
DataNumber:	336
index	Load(kN)	Defor(mm)	Stroke(mm)	Time(s)
    0	  0.0070	  0.0088	   0.009	   0.045
    2	  0.0100	  0.0250	   0.025	   0.145
    4	  0.0120	  0.0412	   0.041	   0.245
    6	  0.0120	  0.0587	   0.059	   0.345
    8	  0.0140	  0.0750	   0.075	   0.445
   10	  0.0150	  0.0912	   0.091	   0.545
   12	  0.0160	  0.1088	   0.109	   0.645
   14	  0.0150	  0.1250	   0.125	   0.745
   16	  0.0140	  0.1412	   0.141	   0.845
   18	  0.0140	  0.1575	   0.157	   0.945
   20	  0.0180	  0.1750	   0.175	   1.045
   22	  0.0230	  0.1912	   0.191	   1.145
   24	  0.0300	  0.2075	   0.207	   1.245
   26	  0.0350	  0.2237	   0.224	   1.345
   28	  0.0420	  0.2412	   0.241	   1.445
   30	  0.0460	  0.2575	   0.257	   1.545
   32	  0.0480	  0.2738	   0.274	   1.645
   34	  0.0420	  0.2912	   0.291	   1.745
   36	  0.0420	  0.3075	   0.308	   1.845
   38	  0.0470	  0.3237	   0.324	   1.945
   40	  0.0510	  0.3413	   0.341	   2.045
   42	  0.0550	  0.3575	   0.357	   2.145
   44	  0.0560	  0.3738	   0.374	   2.245
   46	  0.0590	  0.3900	   0.390	   2.345
   48	  0.0760	  0.4075	   0.407	   2.445
   50	  0.0960	  0.4237	   0.424	   2.545
   52	  0.1200	  0.4400	   0.440	   2.645
   54	  0.1430	  0.4562	   0.456	   2.745
   56	  0.1710	  0.4737	   0.474	   2.845
   58	  0.2010	  0.4900	   0.490	   2.945
   60	  0.2310	  0.5062	   0.506	   3.045
   62	  0.2610	  0.5238	   0.524	   3.145
   64	  0.2930	  0.5400	   0.540	   3.245
   66	  0.3250	  0.5562	   0.556	   3.345
   68	  0.3580	  0.5737	   0.574	   3.445
   70	  0.3910	  0.5900	   0.590	   3.545
   72	  0.4230	  0.6062	   0.606	   3.645
   74	  0.4570	  0.6225	   0.623	   3.745
   76	  0.4900	  0.6400	   0.640	   3.845
   78	  0.5230	  0.6562	   0.656	   3.945
   80	  0.5560	  0.6725	   0.673	   4.045
   82	  0.5890	  0.6887	   0.689	   4.145
   84	  0.6230	  0.7063	   0.706	   4.245
   86	  0.6570	  0.7225	   0.722	   4.345
   88	  0.6900	  0.7387	   0.739	   4.445
   90	  0.7260	  0.7550	   0.755	   4.545
   92	  0.7590	  0.7725	   0.772	   4.645
   94	  0.7930	  0.7887	   0.789	   4.745
   96	  0.8270	  0.8050	   0.805	   4.845
   98	  0.8630	  0.8225	   0.822	   4.945
  100	  0.9000	  0.8388	   0.839	   5.045
  102	  0.9370	  0.8550	   0.855	   5.145
  104	  0.9740	  0.8712	   0.871	   5.245
  106	  1.0130	  0.8887	   0.889	   5.345
  108	  1.0520	  0.9050	   0.905	   5.445
  110	  1.0930	  0.9212	   0.921	   5.545
  112	  1.1350	  0.9387	   0.939	   5.645
  114	  1.1760	  0.9550	   0.955	   5.745
  116	  1.2180	  0.9712	   0.971	   5.845
  118	  1.2600	  0.9887	   0.989	   5.945
  120	  1.3040	  1.0050	   1.005	   6.045
  122	  1.3470	  1.0213	   1.021	   6.145
  124	  1.3910	  1.0387	   1.039	   6.245
  126	  1.4340	  1.0550	   1.055	   6.345
  128	  1.4770	  1.0712	   1.071	   6.445
  130	  1.5210	  1.0888	   1.089	   6.545
  132	  1.5660	  1.1050	   1.105	   6.645
  134	  1.6110	  1.1213	   1.121	   6.745
  136	  1.6570	  1.1387	   1.139	   6.845
  138	  1.7020	  1.1550	   1.155	   6.945
  140	  1.7500	  1.1712	   1.171	   7.045
  142	  1.7980	  1.1888	   1.189	   7.145
  144	  1.8460	  1.2050	   1.205	   7.245
  146	  1.8940	  1.2212	   1.221	   7.345
  148	  1.9430	  1.2387	   1.239	   7.445
  150	  1.9920	  1.2550	   1.255	   7.545
  152	  2.0420	  1.2713	   1.271	   7.645
  154	  2.0920	  1.2887	   1.289	   7.745
  156	  2.1410	  1.3050	   1.305	   7.845
  158	  2.1910	  1.3225	   1.322	   7.945
  160	  2.2390	  1.3388	   1.339	   8.045
  162	  2.2860	  1.3550	   1.355	   8.145
  164	  2.2980	  1.3725	   1.372	   8.245
  166	  2.3150	  1.3887	   1.389	   8.345
  168	  2.3120	  1.4050	   1.405	   8.445
  170	  2.3090	  1.4225	   1.423	   8.545
  172	  1.7690	  1.4387	   1.439	   8.645
  174	  1.5670	  1.4562	   1.456	   8.745
  176	  1.6120	  1.4725	   1.472	   8.845
  178	  1.6520	  1.4887	   1.489	   8.945
  180	  1.6900	  1.5063	   1.506	   9.045
  182	  1.7290	  1.5225	   1.522	   9.145
  184	  1.7640	  1.5387	   1.539	   9.245
  186	  1.7970	  1.5562	   1.556	   9.345
  188	  1.8280	  1.5725	   1.572	   9.445
  190	  1.8540	  1.5900	   1.590	   9.545
  192	  1.8830	  1.6062	   1.606	   9.645
  194	  1.9110	  1.6225	   1.622	   9.745
  196	  1.9390	  1.6400	   1.640	   9.845
  198	  1.9630	  1.6562	   1.656	   9.945
  200	  1.9880	  1.6725	   1.673	  10.045
  202	  2.0150	  1.6900	   1.690	  10.145
  204	  2.0390	  1.7062	   1.706	  10.245
  206	  2.0610	  1.7225	   1.722	  10.345
  208	  2.0830	  1.7400	   1.740	  10.445
  210	  2.1030	  1.7562	   1.756	  10.545
  212	  2.1210	  1.7737	   1.774	  10.645
  214	  2.1400	  1.7900	   1.790	  10.745
  216	  2.1610	  1.8062	   1.806	  10.845
  218	  2.1810	  1.8237	   1.824	  10.945
  220	  2.2020	  1.8400	   1.840	  11.045
  222	  2.2200	  1.8575	   1.857	  11.145
  224	  2.2320	  1.8737	   1.874	  11.245
  226	  2.2410	  1.8913	   1.891	  11.345
  228	  2.2540	  1.9075	   1.907	  11.445
  230	  2.2640	  1.9237	   1.924	  11.545
  232	  2.2720	  1.9412	   1.941	  11.645
  234	  2.2790	  1.9575	   1.957	  11.745
  236	  2.2900	  1.9737	   1.974	  11.845
  238	  2.3010	  1.9912	   1.991	  11.945
  240	  2.3100	  2.0075	   2.007	  12.045
  242	  2.3170	  2.0250	   2.025	  12.145
  244	  2.3160	  2.0412	   2.041	  12.245
  246	  2.1750	  2.0587	   2.059	  12.345
  248	  1.5730	  2.0750	   2.075	  12.445
  250	  1.5560	  2.0925	   2.092	  12.545
  252	  1.5570	  2.1087	   2.109	  12.645
  254	  1.5660	  2.1263	   2.126	  12.745
  256	  1.5770	  2.1425	   2.142	  12.845
  258	  1.5890	  2.1588	   2.159	  12.945
  260	  1.6000	  2.1762	   2.176	  13.045
  262	  1.6070	  2.1925	   2.192	  13.145
  264	  1.6120	  2.2100	   2.210	  13.245
  266	  1.6090	  2.2262	   2.226	  13.345
  268	  1.5790	  2.2425	   2.243	  13.445
  270	  1.5500	  2.2600	   2.260	  13.545
  272	  1.4920	  2.2762	   2.276	  13.645
  274	  1.4510	  2.2938	   2.294	  13.745
  276	  1.4130	  2.3100	   2.310	  13.845
  278	  0.5050	  2.3275	   2.327	  13.945
  280	  0.4740	  2.3438	   2.344	  14.045
  282	  0.4620	  2.3600	   2.360	  14.145
  284	  0.4540	  2.3775	   2.378	  14.245
  286	  0.4470	  2.3937	   2.394	  14.345
  288	  0.4420	  2.4112	   2.411	  14.445
  290	  0.4350	  2.4275	   2.428	  14.545
  292	  0.4270	  2.4450	   2.445	  14.645
  294	  0.4160	  2.4612	   2.461	  14.745
  296	  0.4080	  2.4775	   2.477	  14.845
  298	  0.3990	  2.4950	   2.495	  14.945
  300	  0.3890	  2.5113	   2.511	  15.045
  302	  0.3810	  2.5287	   2.529	  15.145
  304	  0.3730	  2.5450	   2.545	  15.245
  306	  0.3670	  2.5612	   2.561	  15.345
  308	  0.3600	  2.5787	   2.579	  15.445
  310	  0.3530	  2.5950	   2.595	  15.545
  312	  0.3440	  2.6125	   2.612	  15.645
  314	  0.3360	  2.6287	   2.629	  15.745
  316	  0.3240	  2.6450	   2.645	  15.845
  318	  0.3060	  2.6625	   2.662	  15.945
  320	  0.2820	  2.6788	   2.679	  16.045
  322	  0.2700	  2.6962	   2.696	  16.145
  324	  0.2530	  2.7125	   2.712	  16.245
  326	  0.2390	  2.7287	   2.729	  16.345
  328	  0.2280	  2.7462	   2.746	  16.445
  330	  0.2190	  2.7625	   2.763	  16.545
  332	  0.2070	  2.7800	   2.780	  16.645
  334	  0.1950	  2.7962	   2.796	  16.745
  335	  0.1880	  2.8050	   2.805	  16.795
ControlMode:	0
Rate:	 10.0000
(null)
4
step	1
0
5.000000
0.000000
1
1
0.500000
2
step	2
1
5.000000
0.000000
1
1
2.000000
3
step	3
5
2.000000
0.000000
1
0
30
4
step	4
8
0.000000
0.000000
0
0
0.000000
0
2