File: Dados - Compressão/P2 - aluminio.txt
0
Diameter:	   5.00
   1.00
Area:	  19.6350
GaugeLength:	  50.00
2009-1-1
A3
001
DataNumber:	4807
index	Load(kN)	Defor(mm)	Stroke(mm)	Time(s)
    0	  0.0080	  0.0012	   0.001	   0.045
   21	  0.3000	  0.0187	   0.019	   1.095
   42	  0.8080	  0.0362	   0.036	   2.145
   63	  1.4340	  0.0537	   0.054	   3.195
   84	  2.1640	  0.0712	   0.071	   4.245
  105	  2.9800	  0.0887	   0.089	   5.295
  126	  3.9060	  0.1050	   0.105	   6.345
  147	  4.9560	  0.1225	   0.122	   7.395
  168	  6.1180	  0.1400	   0.140	   8.445
  189	  7.3660	  0.1575	   0.157	   9.495
  210	  8.6400	  0.1737	   0.174	  10.545
  231	 10.3960	  0.2000	   0.200	  11.595
  252	 11.6920	  0.2163	   0.216	  12.645
  273	 12.9720	  0.2338	   0.234	  13.695
  294	 14.1680	  0.2512	   0.251	  14.745
  315	 15.2560	  0.2687	   0.269	  15.795
  336	 16.2240	  0.2862	   0.286	  16.845
  357	 17.1560	  0.3025	   0.302	  17.895
  378	 18.0080	  0.3200	   0.320	  18.945
  399	 19.0800	  0.3462	   0.346	  19.995
  420	 19.6100	  0.3637	   0.364	  21.045
  441	 20.0300	  0.3812	   0.381	  22.095
  462	 20.3800	  0.3987	   0.399	  23.145
  483	 20.6700	  0.4162	   0.416	  24.195
  504	 20.9100	  0.4338	   0.434	  25.245
  525	 21.1300	  0.4512	   0.451	  26.295
  546	 21.3100	  0.4688	   0.469	  27.345
  567	 21.4800	  0.4862	   0.486	  28.395
  588	 21.6300	  0.5037	   0.504	  29.445
  609	 21.7700	  0.5213	   0.521	  30.495
  630	 21.9100	  0.5387	   0.539	  31.545
  651	 22.0300	  0.5562	   0.556	  32.595
  672	 22.1500	  0.5737	   0.574	  33.645
  693	 22.2700	  0.5913	   0.591	  34.695
  714	 22.3800	  0.6087	   0.609	  35.745
  735	 22.4900	  0.6262	   0.626	  36.795
  756	 22.6000	  0.6438	   0.644	  37.845
  777	 22.7100	  0.6612	   0.661	  38.895
  798	 22.8100	  0.6787	   0.679	  39.945
  819	 22.9100	  0.6962	   0.696	  40.995
  840	 23.0000	  0.7138	   0.714	  42.045
  861	 23.1000	  0.7312	   0.731	  43.095
  882	 23.2000	  0.7487	   0.749	  44.145
  903	 23.2900	  0.7662	   0.766	  45.195
  924	 23.3800	  0.7837	   0.784	  46.245
  945	 23.4800	  0.8012	   0.801	  47.295
  966	 23.5700	  0.8187	   0.819	  48.345
  987	 23.6500	  0.8363	   0.836	  49.395
 1008	 23.7400	  0.8537	   0.854	  50.445
 1029	 23.8300	  0.8712	   0.871	  51.495
 1050	 23.9100	  0.8887	   0.889	  52.545
 1071	 23.9900	  0.9062	   0.906	  53.595
 1092	 24.0700	  0.9250	   0.925	  54.645
 1113	 24.1500	  0.9425	   0.942	  55.695
 1134	 24.2300	  0.9600	   0.960	  56.745
 1155	 24.3100	  0.9762	   0.976	  57.795
 1176	 24.3900	  0.9937	   0.994	  58.845
 1197	 24.4600	  1.0125	   1.012	  59.895
 1218	 24.5400	  1.0300	   1.030	  60.945
 1239	 24.6100	  1.0475	   1.048	  61.995
 1260	 24.6800	  1.0650	   1.065	  63.045
 1281	 24.7500	  1.0825	   1.082	  64.095
 1302	 24.8200	  1.1000	   1.100	  65.145
 1323	 24.8900	  1.1175	   1.117	  66.195
 1344	 24.9600	  1.1350	   1.135	  67.245
 1365	 25.0200	  1.1525	   1.153	  68.295
 1386	 25.0900	  1.1700	   1.170	  69.345
 1407	 25.1500	  1.1875	   1.188	  70.395
 1428	 25.2100	  1.2062	   1.206	  71.445
 1449	 25.2800	  1.2225	   1.222	  72.495
 1470	 25.3400	  1.2412	   1.241	  73.545
 1491	 25.4100	  1.2587	   1.259	  74.595
 1512	 25.4600	  1.2763	   1.276	  75.645
 1533	 25.5200	  1.2937	   1.294	  76.695
 1554	 25.5800	  1.3112	   1.311	  77.745
 1575	 25.6400	  1.3288	   1.329	  78.795
 1596	 25.7000	  1.3462	   1.346	  79.845
 1617	 25.7500	  1.3637	   1.364	  80.895
 1638	 25.8100	  1.3813	   1.381	  81.945
 1659	 25.8600	  1.3987	   1.399	  82.995
 1680	 25.9200	  1.4162	   1.416	  84.045
 1701	 25.9700	  1.4337	   1.434	  85.095
 1722	 26.0200	  1.4512	   1.451	  86.145
 1743	 26.0700	  1.4688	   1.469	  87.195
 1764	 26.1200	  1.4862	   1.486	  88.245
 1785	 26.1700	  1.5037	   1.504	  89.295
 1806	 26.2200	  1.5213	   1.521	  90.345
 1827	 26.2700	  1.5387	   1.539	  91.395
 1848	 26.3200	  1.5562	   1.556	  92.445
 1869	 26.3700	  1.5750	   1.575	  93.495
 1890	 26.4200	  1.5925	   1.592	  94.545
 1911	 26.4700	  1.6100	   1.610	  95.595
 1932	 26.5100	  1.6275	   1.627	  96.645
 1953	 26.5600	  1.6450	   1.645	  97.695
 1974	 26.6100	  1.6625	   1.662	  98.745
 1995	 26.6500	  1.6800	   1.680	  99.795
 2016	 26.7000	  1.6975	   1.697	 100.845
 2037	 26.7400	  1.7150	   1.715	 101.895
 2058	 26.7900	  1.7325	   1.732	 102.945
 2079	 26.8300	  1.7500	   1.750	 103.995
 2100	 26.8700	  1.7675	   1.767	 105.045
 2121	 26.9200	  1.7850	   1.785	 106.095
 2142	 26.9600	  1.8025	   1.803	 107.145
 2163	 27.0100	  1.8200	   1.820	 108.195
 2184	 27.0500	  1.8375	   1.837	 109.245
 2205	 27.0900	  1.8562	   1.856	 110.295
 2226	 27.1300	  1.8737	   1.874	 111.345
 2247	 27.1700	  1.8913	   1.891	 112.395
 2268	 27.2100	  1.9087	   1.909	 113.445
 2289	 27.2500	  1.9262	   1.926	 114.495
 2310	 27.2900	  1.9437	   1.944	 115.545
 2331	 27.3300	  1.9612	   1.961	 116.595
 2352	 27.3700	  1.9787	   1.979	 117.645
 2373	 27.4200	  1.9962	   1.996	 118.695
 2394	 27.4500	  2.0137	   2.014	 119.745
 2415	 27.4900	  2.0312	   2.031	 120.795
 2436	 27.5300	  2.0487	   2.049	 121.845
 2457	 27.5700	  2.0662	   2.066	 122.895
 2478	 27.6100	  2.0838	   2.084	 123.945
 2499	 27.6500	  2.1012	   2.101	 124.995
 2520	 27.6900	  2.1187	   2.119	 126.045
 2541	 27.7300	  2.1375	   2.138	 127.095
 2562	 27.7700	  2.1550	   2.155	 128.145
 2583	 27.8100	  2.1725	   2.172	 129.195
 2604	 27.8500	  2.1900	   2.190	 130.245
 2625	 27.8900	  2.2075	   2.207	 131.295
 2646	 27.9300	  2.2250	   2.225	 132.345
 2667	 27.9600	  2.2425	   2.243	 133.395
 2688	 28.0000	  2.2600	   2.260	 134.445
 2709	 28.0400	  2.2775	   2.277	 135.495
 2730	 28.0800	  2.2950	   2.295	 136.545
 2751	 28.1200	  2.3125	   2.312	 137.595
 2772	 28.1500	  2.3300	   2.330	 138.645
 2793	 28.1900	  2.3475	   2.347	 139.695
 2814	 28.2300	  2.3650	   2.365	 140.745
 2835	 28.2700	  2.3825	   2.382	 141.795
 2856	 28.3100	  2.4000	   2.400	 142.845
 2877	 28.3500	  2.4175	   2.418	 143.895
 2898	 28.3800	  2.4350	   2.435	 144.945
 2919	 28.4200	  2.4525	   2.452	 145.995
 2940	 28.4600	  2.4700	   2.470	 147.045
 2961	 28.4900	  2.4875	   2.487	 148.095
 2982	 28.5300	  2.5050	   2.505	 149.145
 3003	 28.5700	  2.5225	   2.523	 150.195
 3024	 28.6100	  2.5400	   2.540	 151.245
 3045	 28.6400	  2.5575	   2.557	 152.295
 3066	 28.6800	  2.5750	   2.575	 153.345
 3087	 28.7200	  2.5925	   2.592	 154.395
 3108	 28.7600	  2.6100	   2.610	 155.445
 3129	 28.8000	  2.6275	   2.628	 156.495
 3150	 28.8300	  2.6450	   2.645	 157.545
 3171	 28.8700	  2.6625	   2.662	 158.595
 3192	 28.9100	  2.6812	   2.681	 159.645
 3213	 28.9500	  2.6988	   2.699	 160.695
 3234	 28.9800	  2.7162	   2.716	 161.745
 3255	 29.0200	  2.7337	   2.734	 162.795
 3276	 29.0500	  2.7513	   2.751	 163.845
 3297	 29.0900	  2.7675	   2.767	 164.895
 3318	 29.1300	  2.7850	   2.785	 165.945
 3339	 29.1700	  2.8025	   2.803	 166.995
 3360	 29.2000	  2.8200	   2.820	 168.045
 3381	 29.2400	  2.8387	   2.839	 169.095
 3402	 29.2800	  2.8563	   2.856	 170.145
 3423	 29.3200	  2.8737	   2.874	 171.195
 3444	 29.3500	  2.8912	   2.891	 172.245
 3465	 29.3900	  2.9087	   2.909	 173.295
 3486	 29.4300	  2.9262	   2.926	 174.345
 3507	 29.4700	  2.9437	   2.944	 175.395
 3528	 29.5100	  2.9612	   2.961	 176.445
 3549	 29.5500	  2.9775	   2.977	 177.495
 3570	 29.5800	  2.9950	   2.995	 178.545
 3591	 29.6200	  3.0125	   3.013	 179.595
 3612	 29.6600	  3.0300	   3.030	 180.645
 3633	 29.6900	  3.0475	   3.047	 181.695
 3654	 29.7400	  3.0650	   3.065	 182.745
 3675	 29.7800	  3.0825	   3.082	 183.795
 3696	 29.8100	  3.1000	   3.100	 184.845
 3717	 29.8500	  3.1175	   3.117	 185.895
 3738	 29.8900	  3.1350	   3.135	 186.945
 3759	 29.9200	  3.1525	   3.152	 187.995
 3780	 29.9600	  3.1700	   3.170	 189.045
 3801	 30.0000	  3.1875	   3.188	 190.095
 3822	 30.0400	  3.2050	   3.205	 191.145
 3843	 30.0800	  3.2237	   3.224	 192.195
 3864	 30.1200	  3.2413	   3.241	 193.245
 3885	 30.1600	  3.2587	   3.259	 194.295
 3906	 30.1900	  3.2762	   3.276	 195.345
 3927	 30.2300	  3.2937	   3.294	 196.395
 3948	 30.2700	  3.3112	   3.311	 197.445
 3969	 30.3100	  3.3287	   3.329	 198.495
 3990	 30.3500	  3.3462	   3.346	 199.545
 4011	 30.3900	  3.3637	   3.364	 200.595
 4032	 30.4300	  3.3812	   3.381	 201.645
 4053	 30.4700	  3.3987	   3.399	 202.695
 4074	 30.5000	  3.4162	   3.416	 203.745
 4095	 30.5400	  3.4337	   3.434	 204.795
 4116	 30.5800	  3.4512	   3.451	 205.845
 4137	 30.6200	  3.4688	   3.469	 206.895
 4158	 30.6600	  3.4862	   3.486	 207.945
 4179	 30.7000	  3.5037	   3.504	 208.995
 4200	 30.7400	  3.5213	   3.521	 210.045
 4221	 30.7700	  3.5387	   3.539	 211.095
 4242	 30.8100	  3.5562	   3.556	 212.145
 4263	 30.8500	  3.5725	   3.572	 213.195
 4284	 30.8900	  3.5900	   3.590	 214.245
 4305	 30.9300	  3.6075	   3.607	 215.295
 4326	 30.9700	  3.6250	   3.625	 216.345
 4347	 31.0200	  3.6425	   3.642	 217.395
 4368	 31.0500	  3.6612	   3.661	 218.445
 4389	 31.0900	  3.6787	   3.679	 219.495
 4410	 31.1300	  3.6962	   3.696	 220.545
 4431	 31.1700	  3.7137	   3.714	 221.595
 4452	 31.2100	  3.7300	   3.730	 222.645
 4473	 31.2500	  3.7475	   3.747	 223.695
 4494	 31.2900	  3.7650	   3.765	 224.745
 4515	 31.3300	  3.7825	   3.783	 225.795
 4536	 31.3700	  3.8012	   3.801	 226.845
 4557	 31.4100	  3.8187	   3.819	 227.895
 4578	 31.4500	  3.8362	   3.836	 228.945
 4599	 31.4900	  3.8525	   3.852	 229.995
 4620	 31.5300	  3.8700	   3.870	 231.045
 4641	 31.5700	  3.8875	   3.887	 232.095
 4662	 31.6100	  3.9050	   3.905	 233.145
 4683	 31.6600	  3.9225	   3.922	 234.195
 4704	 31.6900	  3.9400	   3.940	 235.245
 4725	 31.7400	  3.9575	   3.957	 236.295
 4746	 31.7800	  3.9762	   3.976	 237.345
 4767	 31.8100	  3.9937	   3.994	 238.395
 4788	 31.8600	  4.0113	   4.011	 239.445
 4806	 31.8900	  4.0262	   4.026	 240.345
ControlMode:	0
Rate:	  1.0000
(null)
4
step	1
0
5.000000
0.000000
1
1
0.500000
2
step	2
1
5.000000
0.000000
1
1
2.000000
3
step	3
5
2.000000
0.000000
1
0
30
4
step	4
8
0.000000
0.000000
0
0
0.000000
0
2