File: Ensaio de tração/Dados - Tração/P2-aluminio.txt
0
Diameter:	   5.00
   1.00
Area:	  19.6350
GaugeLength:	  50.00
2009-1-1
A3
001
DataNumber:	11112
index	Load(kN)	Defor(mm)	Stroke(mm)	Time(s)
    0	  0.1080	  0.0012	   0.001	   0.045
   47	  0.4776	  0.0056	   0.039	   2.395
   94	  0.8372	  0.0104	   0.078	   4.745
  141	  1.1688	  0.0144	   0.116	   7.095
  188	  1.4864	  0.0184	   0.155	   9.445
  235	  1.7868	  0.0224	   0.194	  11.795
  282	  2.1200	  0.0264	   0.241	  14.145
  329	  2.3620	  0.0296	   0.280	  16.495
  376	  2.5710	  0.0324	   0.319	  18.845
  423	  2.7570	  0.0348	   0.357	  21.195
  470	  2.9230	  0.0372	   0.397	  23.545
  517	  3.0670	  0.0388	   0.436	  25.895
  564	  3.2010	  0.0408	   0.475	  28.245
  611	  3.3240	  0.0424	   0.514	  30.595
  658	  3.4430	  0.0440	   0.554	  32.945
  705	  3.5550	  0.0456	   0.592	  35.295
  752	  3.6690	  0.0476	   0.631	  37.645
  799	  3.7820	  0.0488	   0.670	  39.995
  846	  3.8920	  0.0504	   0.709	  42.345
  893	  4.0020	  0.0520	   0.748	  44.695
  940	  4.1110	  0.0536	   0.787	  47.045
  987	  4.2190	  0.0548	   0.826	  49.395
 1034	  4.3290	  0.0560	   0.865	  51.745
 1081	  4.4380	  0.0580	   0.904	  54.095
 1128	  4.6020	  0.0596	   0.951	  56.445
 1175	  4.7140	  0.0608	   0.990	  58.795
 1222	  4.8280	  0.0624	   1.029	  61.145
 1269	  4.9400	  0.0640	   1.067	  63.495
 1316	  5.0500	  0.0652	   1.106	  65.845
 1363	  5.1640	  0.0668	   1.145	  68.195
 1410	  5.2760	  0.0684	   1.185	  70.545
 1457	  5.3900	  0.0700	   1.224	  72.895
 1504	  5.5020	  0.0712	   1.262	  75.245
 1551	  5.6160	  0.0728	   1.301	  77.595
 1598	  5.7280	  0.0744	   1.340	  79.945
 1645	  5.8400	  0.0756	   1.379	  82.295
 1692	  5.9560	  0.0776	   1.418	  84.645
 1739	  6.0700	  0.0788	   1.457	  86.995
 1786	  6.1860	  0.0804	   1.496	  89.345
 1833	  6.3000	  0.0816	   1.535	  91.695
 1880	  6.4160	  0.0832	   1.574	  94.045
 1927	  6.5340	  0.0848	   1.612	  96.395
 1974	  6.6480	  0.0860	   1.651	  98.745
 2021	  6.7660	  0.0880	   1.690	 101.095
 2068	  6.8860	  0.0892	   1.730	 103.445
 2115	  6.9700	  0.0904	   1.760	 105.795
 2162	  7.1020	  0.0920	   1.799	 108.145
 2209	  7.2220	  0.0936	   1.839	 110.495
 2256	  7.3440	  0.0952	   1.877	 112.845
 2303	  7.4660	  0.0968	   1.916	 115.195
 2350	  7.5880	  0.0984	   1.956	 117.545
 2397	  7.7080	  0.1000	   1.995	 119.895
 2444	  7.8320	  0.1016	   2.035	 122.245
 2491	  7.9540	  0.1032	   2.074	 124.595
 2538	  8.0760	  0.1048	   2.112	 126.945
 2585	  8.2000	  0.1060	   2.152	 129.295
 2632	  8.3220	  0.1076	   2.191	 131.645
 2679	  8.4460	  0.1092	   2.230	 133.995
 2726	  8.5700	  0.1108	   2.270	 136.345
 2773	  8.6920	  0.1124	   2.309	 138.695
 2820	  8.8160	  0.1140	   2.347	 141.045
 2867	  8.9420	  0.1156	   2.388	 143.395
 2914	  9.0680	  0.1176	   2.435	 145.745
 2961	  9.1920	  0.1192	   2.475	 148.095
 3008	  9.3200	  0.1208	   2.514	 150.445
 3055	  9.4480	  0.1224	   2.553	 152.795
 3102	  9.5720	  0.1240	   2.592	 155.145
 3149	  9.6960	  0.1260	   2.631	 157.495
 3196	  9.8280	  0.1276	   2.671	 159.845
 3243	  9.9560	  0.1296	   2.710	 162.195
 3290	 10.0840	  0.1312	   2.749	 164.545
 3337	 10.2120	  0.1332	   2.789	 166.895
 3384	 10.3400	  0.1348	   2.829	 169.245
 3431	 10.4680	  0.1364	   2.867	 171.595
 3478	 10.6000	  0.1380	   2.906	 173.945
 3525	 10.7320	  0.1400	   2.946	 176.295
 3572	 10.8640	  0.1420	   2.985	 178.645
 3619	 10.9920	  0.1436	   3.025	 180.995
 3666	 11.1280	  0.1452	   3.064	 183.345
 3713	 11.2600	  0.1472	   3.104	 185.695
 3760	 11.3960	  0.1492	   3.144	 188.045
 3807	 11.5280	  0.1512	   3.182	 190.395
 3854	 11.6680	  0.1532	   3.221	 192.745
 3901	 11.8040	  0.1552	   3.261	 195.095
 3948	 11.9400	  0.1572	   3.301	 197.445
 3995	 12.0760	  0.1592	   3.340	 199.795
 4042	 12.2080	  0.1616	   3.380	 202.145
 4089	 12.3440	  0.1640	   3.419	 204.495
 4136	 12.4760	  0.1664	   3.457	 206.845
 4183	 12.6080	  0.1692	   3.497	 209.195
 4230	 12.7400	  0.1720	   3.536	 211.545
 4277	 12.8640	  0.1756	   3.576	 213.895
 4324	 12.9880	  0.1796	   3.615	 216.245
 4371	 13.1040	  0.1848	   3.655	 218.595
 4418	 13.2040	  0.1912	   3.694	 220.945
 4465	 13.3000	  0.1992	   3.734	 223.295
 4512	 13.3880	  0.2088	   3.772	 225.645
 4559	 13.4600	  0.2200	   3.812	 227.995
 4606	 13.5280	  0.2332	   3.851	 230.345
 4653	 13.5800	  0.2476	   3.891	 232.695
 4700	 13.6240	  0.2636	   3.930	 235.045
 4747	 13.6640	  0.2960	   3.969	 237.395
 4794	 13.6960	  0.3360	   4.009	 239.745
 4841	 13.7240	  0.3748	   4.048	 242.095
 4888	 13.7520	  0.4148	   4.088	 244.445
 4935	 13.7760	  0.4535	   4.126	 246.795
 4982	 13.8000	  0.4935	   4.166	 249.145
 5029	 13.8240	  0.5323	   4.205	 251.495
 5076	 13.8440	  0.5723	   4.245	 253.845
 5123	 13.8640	  0.6110	   4.284	 256.195
 5170	 13.8840	  0.6510	   4.324	 258.545
 5217	 13.9000	  0.6898	   4.362	 260.895
 5264	 13.9200	  0.7298	   4.402	 263.245
 5311	 13.9360	  0.7685	   4.441	 265.595
 5358	 13.9520	  0.8073	   4.480	 267.945
 5405	 13.9680	  0.8473	   4.520	 270.295
 5452	 13.9840	  0.8860	   4.559	 272.645
 5499	 14.0000	  0.9248	   4.597	 274.995
 5546	 14.0160	  0.9648	   4.637	 277.345
 5593	 14.0280	  1.0035	   4.676	 279.695
 5640	 14.0440	  1.0435	   4.716	 282.045
 5687	 14.0560	  1.0823	   4.755	 284.395
 5734	 14.0680	  1.1210	   4.794	 286.745
 5781	 14.0800	  1.1610	   4.834	 289.095
 5828	 14.0960	  1.1998	   4.872	 291.445
 5875	 14.1080	  1.2385	   4.911	 293.795
 5922	 14.1200	  1.2785	   4.951	 296.145
 5969	 14.1320	  1.3173	   4.990	 298.495
 6016	 14.1440	  1.3560	   5.029	 300.845
 6063	 14.1560	  1.3960	   5.069	 303.195
 6110	 14.1680	  1.4348	   5.108	 305.545
 6157	 14.1800	  1.4748	   5.148	 307.895
 6204	 14.1880	  1.5135	   5.186	 310.245
 6251	 14.1960	  1.5523	   5.225	 312.595
 6298	 14.2080	  1.5923	   5.265	 314.945
 6345	 14.2200	  1.6310	   5.304	 317.295
 6392	 14.2320	  1.6710	   5.344	 319.645
 6439	 14.2440	  1.7098	   5.382	 321.995
 6486	 14.2520	  1.7485	   5.421	 324.345
 6533	 14.2600	  1.7885	   5.461	 326.695
 6580	 14.2720	  1.8348	   5.507	 329.045
 6627	 14.2840	  1.8748	   5.547	 331.395
 6674	 14.2920	  1.9135	   5.586	 333.745
 6721	 14.3000	  1.9535	   5.626	 336.095
 6768	 14.3080	  1.9923	   5.665	 338.445
 6815	 14.3160	  2.0310	   5.704	 340.795
 6862	 14.3240	  2.0710	   5.744	 343.145
 6909	 14.3320	  2.1098	   5.782	 345.495
 6956	 14.3400	  2.1485	   5.821	 347.845
 7003	 14.3480	  2.1885	   5.861	 350.195
 7050	 14.3560	  2.2273	   5.900	 352.545
 7097	 14.3600	  2.2673	   5.940	 354.895
 7144	 14.3640	  2.3060	   5.979	 357.245
 7191	 14.3720	  2.3448	   6.017	 359.595
 7238	 14.3760	  2.3848	   6.057	 361.945
 7285	 14.3840	  2.4235	   6.096	 364.295
 7332	 14.3880	  2.4635	   6.136	 366.645
 7379	 14.3920	  2.5023	   6.175	 368.995
 7426	 14.3960	  2.5423	   6.215	 371.345
 7473	 14.4000	  2.5810	   6.254	 373.695
 7520	 14.4000	  2.6210	   6.294	 376.045
 7567	 14.4040	  2.6598	   6.332	 378.395
 7614	 14.4040	  2.6998	   6.372	 380.745
 7661	 14.4080	  2.7385	   6.411	 383.095
 7708	 14.4040	  2.7785	   6.451	 385.445
 7755	 14.4040	  2.8173	   6.490	 387.795
 7802	 14.4040	  2.8560	   6.529	 390.145
 7849	 14.4000	  2.8960	   6.569	 392.495
 7896	 14.3960	  2.9348	   6.608	 394.845
 7943	 14.3880	  2.9748	   6.648	 397.195
 7990	 14.3840	  3.0135	   6.686	 399.545
 8037	 14.3720	  3.0535	   6.726	 401.895
 8084	 14.3640	  3.0923	   6.765	 404.245
 8131	 14.3520	  3.1310	   6.804	 406.595
 8178	 14.3360	  3.1710	   6.844	 408.945
 8225	 14.3200	  3.2110	   6.884	 411.295
 8272	 14.3040	  3.2498	   6.922	 413.645
 8319	 14.2840	  3.2898	   6.962	 415.995
 8366	 14.2600	  3.3285	   7.001	 418.345
 8413	 14.2320	  3.3685	   7.041	 420.695
 8460	 14.2080	  3.4073	   7.080	 423.045
 8507	 14.1800	  3.4473	   7.120	 425.395
 8554	 14.1480	  3.4860	   7.159	 427.745
 8601	 14.1160	  3.5260	   7.199	 430.095
 8648	 14.0800	  3.5648	   7.237	 432.445
 8695	 14.0440	  3.6048	   7.277	 434.795
 8742	 14.0040	  3.6435	   7.316	 437.145
 8789	 13.9680	  3.6835	   7.356	 439.495
 8836	 13.9280	  3.7223	   7.395	 441.845
 8883	 13.8840	  3.7623	   7.435	 444.195
 8930	 13.8400	  3.8023	   7.475	 446.545
 8977	 13.7960	  3.8410	   7.514	 448.895
 9024	 13.7480	  3.8810	   7.554	 451.245
 9071	 13.7000	  3.9198	   7.592	 453.595
 9118	 13.6520	  3.9585	   7.631	 455.945
 9165	 13.6000	  3.9985	   7.671	 458.295
 9212	 13.5480	  4.0385	   7.711	 460.645
 9259	 13.5000	  4.0773	   7.750	 462.995
 9306	 13.4440	  4.1173	   7.790	 465.345
 9353	 13.3920	  4.1560	   7.829	 467.695
 9400	 13.3360	  4.1960	   7.869	 470.045
 9447	 13.2840	  4.2348	   7.907	 472.395
 9494	 13.2240	  4.2748	   7.947	 474.745
 9541	 13.1680	  4.3148	   7.987	 477.095
 9588	 13.1080	  4.3535	   8.026	 479.445
 9635	 13.0520	  4.3923	   8.065	 481.795
 9682	 12.9880	  4.4323	   8.105	 484.145
 9729	 12.9240	  4.4710	   8.144	 486.495
 9776	 12.8520	  4.5198	   8.193	 488.845
 9823	 12.7880	  4.5585	   8.231	 491.195
 9870	 12.7240	  4.5985	   8.271	 493.545
 9917	 12.6560	  4.6373	   8.310	 495.895
 9964	 12.5880	  4.6760	   8.349	 498.245
10011	 12.5200	  4.7160	   8.389	 500.595
10058	 12.4520	  4.7548	   8.427	 502.945
10105	 12.3840	  4.7935	   8.466	 505.295
10152	 12.3120	  4.8335	   8.506	 507.645
10199	 12.2400	  4.8735	   8.546	 509.995
10246	 12.1680	  4.9123	   8.585	 512.345
10293	 12.0920	  4.9510	   8.624	 514.695
10340	 12.0160	  4.9910	   8.664	 517.045
10387	 11.9400	  5.0298	   8.702	 519.395
10434	 11.8640	  5.0685	   8.741	 521.745
10481	 11.7840	  5.1085	   8.781	 524.095
10528	 11.7040	  5.1473	   8.820	 526.445
10575	 11.6240	  5.1860	   8.859	 528.795
10622	 11.5400	  5.2260	   8.899	 531.145
10669	 11.4560	  5.2648	   8.938	 533.495
10716	 11.3680	  5.3035	   8.976	 535.845
10763	 11.2800	  5.3435	   9.016	 538.195
10810	 11.1920	  5.3823	   9.055	 540.545
10857	 11.0920	  5.4223	   9.095	 542.895
10904	 10.9920	  5.4610	   9.134	 545.245
10951	 10.8880	  5.4998	   9.172	 547.595
10998	 10.7680	  5.5398	   9.212	 549.945
11045	 10.5160	  5.5785	   9.251	 552.295
11092	  0.2400	  5.6173	   9.290	 554.645
11111	  0.2400	  5.6335	   9.306	 555.595
ControlMode:	0
Rate:	  1.0000
(null)
4
step	1
0
5.000000
0.000000
1
1
0.500000
2
step	2
1
5.000000
0.000000
1
1
2.000000
3
step	3
5
2.000000
0.000000
1
0
30
4
step	4
8
0.000000
0.000000
0
0
0.000000
0
2