File: Ensaio de tração/Dados - Tração/P2-lacre guinner 02.txt
0
Diameter:	   5.00
   1.00
Area:	  19.6350
GaugeLength:	  50.00
2009-1-1
A3
001
DataNumber:	6462
index	Load(kN)	Defor(mm)	Stroke(mm)	Time(s)
    0	  0.0096	  0.0088	   0.009	   0.045
   28	  0.0108	  0.2387	   0.239	   1.445
   56	  0.0124	  0.4712	   0.471	   2.845
   84	  0.0120	  0.7050	   0.705	   4.245
  112	  0.0132	  0.9362	   0.936	   5.645
  140	  0.0148	  1.1700	   1.170	   7.045
  168	  0.0156	  1.4037	   1.404	   8.445
  196	  0.0160	  1.6387	   1.639	   9.845
  224	  0.0180	  1.8725	   1.872	  11.245
  252	  0.0188	  2.1063	   2.106	  12.645
  280	  0.0216	  2.3400	   2.340	  14.045
  308	  0.0232	  2.5750	   2.575	  15.445
  336	  0.0264	  2.8112	   2.811	  16.845
  364	  0.0288	  3.0450	   3.045	  18.245
  392	  0.0316	  3.2787	   3.279	  19.645
  420	  0.0352	  3.5125	   3.512	  21.045
  448	  0.0388	  3.7450	   3.745	  22.445
  476	  0.0428	  3.9787	   3.979	  23.845
  504	  0.0472	  4.2100	   4.210	  25.245
  532	  0.0524	  4.4437	   4.444	  26.645
  560	  0.0564	  4.6762	   4.676	  28.045
  588	  0.0612	  4.9113	   4.911	  29.445
  616	  0.0664	  5.1450	   5.145	  30.845
  644	  0.0728	  5.3787	   5.379	  32.245
  672	  0.0784	  5.6137	   5.614	  33.645
  700	  0.0840	  5.8487	   5.849	  35.045
  728	  0.0900	  6.0825	   6.082	  36.445
  756	  0.0960	  6.3175	   6.317	  37.845
  784	  0.1016	  6.5512	   6.551	  39.245
  812	  0.1084	  6.7862	   6.786	  40.645
  840	  0.1148	  7.0200	   7.020	  42.045
  868	  0.1204	  7.2537	   7.254	  43.445
  896	  0.1256	  7.4875	   7.487	  44.845
  924	  0.1332	  7.7213	   7.721	  46.245
  952	  0.1388	  7.9550	   7.955	  47.645
  980	  0.1456	  8.1888	   8.189	  49.045
 1008	  0.1516	  8.4212	   8.421	  50.445
 1036	  0.1564	  8.6550	   8.655	  51.845
 1064	  0.1636	  8.8900	   8.890	  53.245
 1092	  0.1696	  9.1237	   9.124	  54.645
 1120	  0.1740	  9.3587	   9.359	  56.045
 1148	  0.1800	  9.5925	   9.592	  57.445
 1176	  0.1844	  9.8275	   9.827	  58.845
 1204	  0.1896	 10.0625	  10.062	  60.245
 1232	  0.1944	 10.2975	  10.297	  61.645
 1260	  0.1988	 10.5312	  10.531	  63.045
 1288	  0.2040	 10.7662	  10.766	  64.445
 1316	  0.2088	 11.0000	  11.000	  65.845
 1344	  0.2132	 11.2337	  11.234	  67.245
 1372	  0.2176	 11.4662	  11.466	  68.645
 1400	  0.2224	 11.7000	  11.700	  70.045
 1428	  0.2272	 11.9325	  11.932	  71.445
 1456	  0.2300	 12.1650	  12.165	  72.845
 1484	  0.2344	 12.3987	  12.399	  74.245
 1512	  0.2384	 12.6325	  12.632	  75.645
 1540	  0.2420	 12.8663	  12.866	  77.045
 1568	  0.2468	 13.1012	  13.101	  78.445
 1596	  0.2496	 13.3362	  13.336	  79.845
 1624	  0.2532	 13.5700	  13.570	  81.245
 1652	  0.2556	 13.8038	  13.804	  82.645
 1680	  0.2588	 14.0387	  14.039	  84.045
 1708	  0.2616	 14.2725	  14.273	  85.445
 1736	  0.2660	 14.5075	  14.507	  86.845
 1764	  0.2684	 14.7425	  14.742	  88.245
 1792	  0.2716	 14.9762	  14.976	  89.645
 1820	  0.2736	 15.2100	  15.210	  91.045
 1848	  0.2776	 15.4437	  15.444	  92.445
 1876	  0.2800	 15.6762	  15.676	  93.845
 1904	  0.2824	 15.9100	  15.910	  95.245
 1932	  0.2852	 16.1425	  16.142	  96.645
 1960	  0.2872	 16.3762	  16.376	  98.045
 1988	  0.2908	 16.6100	  16.610	  99.445
 2016	  0.2936	 21.9412	  21.941	 100.845
 2044	  0.2964	 22.1750	  22.175	 102.245
 2072	  0.2972	 22.4087	  22.409	 103.645
 2100	  0.3016	 22.6425	  22.642	 105.045
 2128	  0.3028	 22.8762	  22.876	 106.445
 2156	  0.3048	 23.1100	  23.110	 107.845
 2184	  0.3076	 23.3450	  23.345	 109.245
 2212	  0.3096	 23.5800	  23.580	 110.645
 2240	  0.3116	 23.8150	  23.815	 112.045
 2268	  0.3144	 24.0500	  24.050	 113.445
 2296	  0.3160	 24.2837	  24.284	 114.845
 2324	  0.3180	 24.5187	  24.519	 116.245
 2352	  0.3208	 24.7537	  24.754	 117.645
 2380	  0.3228	 24.9862	  24.986	 119.045
 2408	  0.3240	 25.2188	  25.219	 120.445
 2436	  0.3272	 25.4525	  25.452	 121.845
 2464	  0.3284	 25.6875	  25.688	 123.245
 2492	  0.3292	 25.9200	  25.920	 124.645
 2520	  0.3308	 26.1537	  26.154	 126.045
 2548	  0.3324	 26.3875	  26.387	 127.445
 2576	  0.3344	 26.6213	  26.621	 128.845
 2604	  0.3364	 26.8550	  26.855	 130.245
 2632	  0.3384	 27.0887	  27.089	 131.645
 2660	  0.3400	 27.3225	  27.323	 133.045
 2688	  0.3420	 27.5562	  27.556	 134.445
 2716	  0.3440	 27.7925	  27.792	 135.845
 2744	  0.3456	 28.0275	  28.028	 137.245
 2772	  0.3464	 28.2625	  28.262	 138.645
 2800	  0.3484	 28.4963	  28.496	 140.045
 2828	  0.3500	 28.7312	  28.731	 141.445
 2856	  0.3504	 28.9650	  28.965	 142.845
 2884	  0.3516	 29.1975	  29.198	 144.245
 2912	  0.3540	 29.4312	  29.431	 145.645
 2940	  0.3556	 29.6637	  29.664	 147.045
 2968	  0.3580	 29.8975	  29.897	 148.445
 2996	  0.3580	 30.1312	  30.131	 149.845
 3024	  0.3596	 30.3637	  30.364	 151.245
 3052	  0.3612	 30.5975	  30.597	 152.645
 3080	  0.3620	 30.8312	  30.831	 154.045
 3108	  0.3640	 31.0662	  31.066	 155.445
 3136	  0.3660	 31.3000	  31.300	 156.845
 3164	  0.3668	 31.5337	  31.534	 158.245
 3192	  0.3684	 31.7675	  31.767	 159.645
 3220	  0.3692	 32.0025	  32.002	 161.045
 3248	  0.3712	 32.2375	  32.237	 162.445
 3276	  0.3728	 32.4712	  32.471	 163.845
 3304	  0.3744	 32.7062	  32.706	 165.245
 3332	  0.3748	 32.9400	  32.940	 166.645
 3360	  0.3768	 33.1750	  33.175	 168.045
 3388	  0.3772	 33.4075	  33.407	 169.445
 3416	  0.3772	 33.6413	  33.641	 170.845
 3444	  0.3796	 33.8762	  33.876	 172.245
 3472	  0.3804	 34.1100	  34.110	 173.645
 3500	  0.3816	 34.3438	  34.344	 175.045
 3528	  0.3824	 34.5775	  34.577	 176.445
 3556	  0.3832	 34.8112	  34.811	 177.845
 3584	  0.3864	 35.0425	  35.042	 179.245
 3612	  0.3860	 35.2762	  35.276	 180.645
 3640	  0.3868	 35.5112	  35.511	 182.045
 3668	  0.3888	 35.7450	  35.745	 183.445
 3696	  0.3896	 35.9813	  35.981	 184.845
 3724	  0.3916	 36.2150	  36.215	 186.245
 3752	  0.3908	 36.4500	  36.450	 187.645
 3780	  0.3924	 36.6838	  36.684	 189.045
 3808	  0.3940	 36.9175	  36.917	 190.445
 3836	  0.3948	 37.1512	  37.151	 191.845
 3864	  0.3948	 37.3850	  37.385	 193.245
 3892	  0.3960	 37.6187	  37.619	 194.645
 3920	  0.3968	 37.8525	  37.853	 196.045
 3948	  0.3980	 38.0863	  38.086	 197.445
 3976	  0.3988	 38.3200	  38.320	 198.845
 4004	  0.4008	 38.5525	  38.552	 200.245
 4032	  0.4012	 38.7850	  38.785	 201.645
 4060	  0.4020	 39.0187	  39.019	 203.045
 4088	  0.4028	 39.2525	  39.252	 204.445
 4116	  0.4040	 39.4862	  39.486	 205.845
 4144	  0.4044	 39.7212	  39.721	 207.245
 4172	  0.4048	 39.9550	  39.955	 208.645
 4200	  0.4060	 40.1887	  40.189	 210.045
 4228	  0.4068	 40.4237	  40.424	 211.445
 4256	  0.4072	 40.6587	  40.659	 212.845
 4284	  0.4080	 40.8925	  40.892	 214.245
 4312	  0.4084	 41.1262	  41.126	 215.645
 4340	  0.4088	 41.3600	  41.360	 217.045
 4368	  0.4092	 41.5938	  41.594	 218.445
 4396	  0.4116	 41.8275	  41.827	 219.845
 4424	  0.4116	 42.0612	  42.061	 221.245
 4452	  0.4120	 42.2950	  42.295	 222.645
 4480	  0.4132	 42.5275	  42.528	 224.045
 4508	  0.4144	 42.7600	  42.760	 225.445
 4536	  0.4156	 42.9937	  42.994	 226.845
 4564	  0.4160	 43.2275	  43.228	 228.245
 4592	  0.4160	 43.4613	  43.461	 229.645
 4620	  0.4168	 43.6937	  43.694	 231.045
 4648	  0.4172	 43.9275	  43.927	 232.445
 4676	  0.4184	 44.1625	  44.162	 233.845
 4704	  0.4192	 44.3975	  44.397	 235.245
 4732	  0.4188	 44.6325	  44.632	 236.645
 4760	  0.4204	 44.8675	  44.868	 238.045
 4788	  0.4212	 45.1012	  45.101	 239.445
 4816	  0.4228	 45.3350	  45.335	 240.845
 4844	  0.4236	 45.5700	  45.570	 242.245
 4872	  0.4236	 45.8037	  45.804	 243.645
 4900	  0.4240	 46.0375	  46.037	 245.045
 4928	  0.4248	 46.2700	  46.270	 246.445
 4956	  0.4264	 46.5037	  46.504	 247.845
 4984	  0.4260	 46.7362	  46.736	 249.245
 5012	  0.4276	 46.9700	  46.970	 250.645
 5040	  0.4276	 47.2012	  47.201	 252.045
 5068	  0.4284	 47.4350	  47.435	 253.445
 5096	  0.4288	 47.6700	  47.670	 254.845
 5124	  0.4296	 47.9050	  47.905	 256.245
 5152	  0.4296	 48.1400	  48.140	 257.645
 5180	  0.4304	 48.3750	  48.375	 259.045
 5208	  0.4316	 48.6087	  48.609	 260.445
 5236	  0.4316	 48.8438	  48.844	 261.845
 5264	  0.4328	 49.0775	  49.077	 263.245
 5292	  0.4328	 49.3125	  49.312	 264.645
 5320	  0.4340	 49.5462	  49.546	 266.045
 5348	  0.4340	 49.7800	  49.780	 267.445
 5376	  0.4340	 50.0137	  50.014	 268.845
 5404	  0.4348	 50.2475	  50.247	 270.245
 5432	  0.4352	 50.4800	  50.480	 271.645
 5460	  0.4360	 50.7137	  50.714	 273.045
 5488	  0.4372	 50.9475	  50.947	 274.445
 5516	  0.4372	 51.1800	  51.180	 275.845
 5544	  0.4380	 51.4137	  51.414	 277.245
 5572	  0.4384	 51.6488	  51.649	 278.645
 5600	  0.4384	 51.8825	  51.882	 280.045
 5628	  0.4396	 52.1162	  52.116	 281.445
 5656	  0.4392	 52.3512	  52.351	 282.845
 5684	  0.4400	 52.5850	  52.585	 284.245
 5712	  0.4408	 52.8200	  52.820	 285.645
 5740	  0.4412	 53.0550	  53.055	 287.045
 5768	  0.4412	 53.2887	  53.289	 288.445
 5796	  0.4428	 53.5238	  53.524	 289.845
 5824	  0.4424	 53.7575	  53.757	 291.245
 5852	  0.4432	 53.9925	  53.993	 292.645
 5880	  0.4424	 54.2262	  54.226	 294.045
 5908	  0.4432	 54.4587	  54.459	 295.445
 5936	  0.4452	 54.6925	  54.692	 296.845
 5964	  0.4456	 54.9263	  54.926	 298.245
 5992	  0.4460	 55.1587	  55.159	 299.645
 6020	  0.4460	 55.3925	  55.392	 301.045
 6048	  0.4460	 55.6262	  55.626	 302.445
 6076	  0.4464	 55.8600	  55.860	 303.845
 6104	  0.4464	 56.0950	  56.095	 305.245
 6132	  0.4472	 56.3288	  56.329	 306.645
 6160	  0.4476	 56.5637	  56.564	 308.045
 6188	  0.4492	 56.7975	  56.798	 309.445
 6216	  0.4492	 57.0325	  57.032	 310.845
 6244	  0.4488	 57.2663	  57.266	 312.245
 6272	  0.4488	 57.5000	  57.500	 313.645
 6300	  0.4492	 57.7350	  57.735	 315.045
 6328	  0.4488	 57.9700	  57.970	 316.445
 6356	  0.4480	 58.2037	  58.204	 317.845
 6384	  0.0020	 58.4387	  58.439	 319.245
 6412	  0.0016	 58.6712	  58.671	 320.645
 6440	  0.0012	 58.9050	  58.905	 322.045
 6461	  0.0012	 59.0800	  59.080	 323.095
ControlMode:	0
Rate:	 10.0000
(null)
4
step	1
0
5.000000
0.000000
1
1
0.500000
2
step	2
1
5.000000
0.000000
1
1
2.000000
3
step	3
5
2.000000
0.000000
1
0
30
4
step	4
8
0.000000
0.000000
0
0
0.000000
0
2