File: Dados - Tração/P2-lacre guinner 01.txt
0
Diameter:	   5.00
   1.00
Area:	  19.6350
GaugeLength:	  50.00
2009-1-1
A3
001
DataNumber:	5987
index	Load(kN)	Defor(mm)	Stroke(mm)	Time(s)
    0	  0.0096	  0.0088	   0.009	   0.045
   26	  0.0096	  0.2250	   0.225	   1.345
   52	  0.0104	  0.4412	   0.441	   2.645
   78	  0.0112	  0.6587	   0.659	   3.945
  104	  0.0124	  0.8762	   0.876	   5.245
  130	  0.0136	  1.0938	   1.094	   6.545
  156	  0.0148	  1.3100	   1.310	   7.845
  182	  0.0160	  1.5275	   1.527	   9.145
  208	  0.0168	  1.7450	   1.745	  10.445
  234	  0.0188	  1.9638	   1.964	  11.745
  260	  0.0208	  2.1812	   2.181	  13.045
  286	  0.0224	  2.3987	   2.399	  14.345
  312	  0.0244	  2.6150	   2.615	  15.645
  338	  0.0272	  2.8338	   2.834	  16.945
  364	  0.0296	  3.0525	   3.053	  18.245
  390	  0.0328	  3.2700	   3.270	  19.545
  416	  0.0336	  3.4875	   3.487	  20.845
  442	  0.0384	  3.7037	   3.704	  22.145
  468	  0.0420	  3.9200	   3.920	  23.445
  494	  0.0452	  4.1363	   4.136	  24.745
  520	  0.0492	  4.3525	   4.352	  26.045
  546	  0.0524	  4.5700	   4.570	  27.345
  572	  0.0560	  4.7863	   4.786	  28.645
  598	  0.0604	  5.0037	   5.004	  29.945
  624	  0.0644	  5.2213	   5.221	  31.245
  650	  0.0692	  5.4375	   5.438	  32.545
  676	  0.0744	  5.6550	   5.655	  33.845
  702	  0.0796	  5.8725	   5.872	  35.145
  728	  0.0844	  6.0887	   6.089	  36.445
  754	  0.0904	  6.3063	   6.306	  37.745
  780	  0.0952	  6.5250	   6.525	  39.045
  806	  0.1004	  6.7413	   6.741	  40.345
  832	  0.1072	  6.9600	   6.960	  41.645
  858	  0.1000	  7.1775	   7.177	  42.945
  884	  0.1076	  7.3950	   7.395	  44.245
  910	  0.1124	  7.6100	   7.610	  45.545
  936	  0.1188	  7.8262	   7.826	  46.845
  962	  0.1256	  8.0437	   8.044	  48.145
  988	  0.1320	  8.2612	   8.261	  49.445
 1014	  0.1368	  8.4775	   8.477	  50.745
 1040	  0.1420	  8.6950	   8.695	  52.045
 1066	  0.1472	  8.9125	   8.912	  53.345
 1092	  0.1532	  9.1287	   9.129	  54.645
 1118	  0.1584	  9.3462	   9.346	  55.945
 1144	  0.1632	  9.5637	   9.564	  57.245
 1170	  0.1676	  9.7825	   9.782	  58.545
 1196	  0.1736	 10.0000	  10.000	  59.845
 1222	  0.1776	 10.2188	  10.219	  61.145
 1248	  0.1832	 10.4362	  10.436	  62.445
 1274	  0.1884	 10.6537	  10.654	  63.745
 1300	  0.1932	 10.8713	  10.871	  65.045
 1326	  0.1976	 11.0887	  11.089	  66.345
 1352	  0.2020	 11.3062	  11.306	  67.645
 1378	  0.2056	 11.5237	  11.524	  68.945
 1404	  0.2108	 11.7400	  11.740	  70.245
 1430	  0.2148	 11.9575	  11.957	  71.545
 1456	  0.2184	 12.1725	  12.172	  72.845
 1482	  0.2232	 12.3900	  12.390	  74.145
 1508	  0.2264	 12.6062	  12.606	  75.445
 1534	  0.2304	 12.8225	  12.822	  76.745
 1560	  0.2336	 13.0412	  13.041	  78.045
 1586	  0.2372	 13.2587	  13.259	  79.345
 1612	  0.2412	 13.4762	  13.476	  80.645
 1638	  0.2440	 13.6937	  13.694	  81.945
 1664	  0.2468	 13.9113	  13.911	  83.245
 1690	  0.2500	 14.1287	  14.129	  84.545
 1716	  0.2536	 14.3462	  14.346	  85.845
 1742	  0.2576	 14.5637	  14.564	  87.145
 1768	  0.2604	 14.7812	  14.781	  88.445
 1794	  0.2636	 14.9987	  14.999	  89.745
 1820	  0.2664	 15.2162	  15.216	  91.045
 1846	  0.2684	 15.4337	  15.434	  92.345
 1872	  0.2716	 15.6500	  15.650	  93.645
 1898	  0.2748	 15.8675	  15.867	  94.945
 1924	  0.2776	 16.0837	  16.084	  96.245
 1950	  0.2800	 16.3013	  16.301	  97.545
 1976	  0.2828	 16.5175	  16.517	  98.845
 2002	  0.2852	 16.7337	  16.734	 100.145
 2028	  0.2880	 16.9513	  16.951	 101.445
 2054	  0.2908	 17.1675	  17.167	 102.745
 2080	  0.2928	 17.3837	  17.384	 104.045
 2106	  0.2948	 17.6000	  17.600	 105.345
 2132	  0.2960	 17.8175	  17.817	 106.645
 2158	  0.2992	 18.0350	  18.035	 107.945
 2184	  0.3028	 18.2525	  18.253	 109.245
 2210	  0.3044	 18.4700	  18.470	 110.545
 2236	  0.3056	 18.6887	  18.689	 111.845
 2262	  0.3076	 18.9062	  18.906	 113.145
 2288	  0.3092	 19.1237	  19.124	 114.445
 2314	  0.3112	 19.3425	  19.342	 115.745
 2340	  0.3136	 19.5600	  19.560	 117.045
 2366	  0.3156	 19.7787	  19.779	 118.345
 2392	  0.3168	 19.9963	  19.996	 119.645
 2418	  0.3192	 20.2125	  20.212	 120.945
 2444	  0.3216	 20.4300	  20.430	 122.245
 2470	  0.3232	 20.6462	  20.646	 123.545
 2496	  0.3248	 20.8638	  20.864	 124.845
 2522	  0.3268	 21.0800	  21.080	 126.145
 2548	  0.3288	 21.2962	  21.296	 127.445
 2574	  0.3300	 21.5138	  21.514	 128.745
 2600	  0.3316	 21.7300	  21.730	 130.045
 2626	  0.3332	 21.9475	  21.948	 131.345
 2652	  0.3344	 22.1650	  22.165	 132.645
 2678	  0.3360	 22.3813	  22.381	 133.945
 2704	  0.3388	 22.5987	  22.599	 135.245
 2730	  0.3412	 22.8175	  22.817	 136.545
 2756	  0.3408	 23.0362	  23.036	 137.845
 2782	  0.3436	 23.2550	  23.255	 139.145
 2808	  0.3452	 23.4725	  23.472	 140.445
 2834	  0.3476	 23.6900	  23.690	 141.745
 2860	  0.3476	 23.9075	  23.907	 143.045
 2886	  0.3496	 24.1237	  24.124	 144.345
 2912	  0.3504	 24.3412	  24.341	 145.645
 2938	  0.3528	 24.5575	  24.557	 146.945
 2964	  0.3536	 24.7725	  24.772	 148.245
 2990	  0.3552	 24.9900	  24.990	 149.545
 3016	  0.3568	 25.2062	  25.206	 150.845
 3042	  0.3580	 25.4225	  25.422	 152.145
 3068	  0.3588	 25.6388	  25.639	 153.445
 3094	  0.3608	 25.8562	  25.856	 154.745
 3120	  0.3616	 26.0737	  26.074	 156.045
 3146	  0.3632	 26.2913	  26.291	 157.345
 3172	  0.3648	 26.5087	  26.509	 158.645
 3198	  0.3660	 26.7262	  26.726	 159.945
 3224	  0.3672	 26.9450	  26.945	 161.245
 3250	  0.3676	 27.1625	  27.162	 162.545
 3276	  0.3692	 27.3812	  27.381	 163.845
 3302	  0.3704	 27.5987	  27.599	 165.145
 3328	  0.3720	 27.8150	  27.815	 166.445
 3354	  0.3716	 28.0325	  28.032	 167.745
 3380	  0.3732	 28.2512	  28.251	 169.045
 3406	  0.3752	 28.4675	  28.467	 170.345
 3432	  0.3764	 28.6850	  28.685	 171.645
 3458	  0.3776	 28.9025	  28.903	 172.945
 3484	  0.3788	 29.1187	  29.119	 174.245
 3510	  0.3788	 29.3362	  29.336	 175.545
 3536	  0.3808	 29.5537	  29.554	 176.845
 3562	  0.3816	 29.7712	  29.771	 178.145
 3588	  0.3828	 29.9887	  29.989	 179.445
 3614	  0.3840	 30.2050	  30.205	 180.745
 3640	  0.3848	 30.4225	  30.422	 182.045
 3666	  0.3856	 30.6400	  30.640	 183.345
 3692	  0.3868	 30.8587	  30.859	 184.645
 3718	  0.3872	 31.0763	  31.076	 185.945
 3744	  0.3888	 31.2937	  31.294	 187.245
 3770	  0.3892	 31.5125	  31.512	 188.545
 3796	  0.3912	 31.7288	  31.729	 189.845
 3822	  0.3916	 31.9450	  31.945	 191.145
 3848	  0.3924	 32.1625	  32.162	 192.445
 3874	  0.3940	 32.3800	  32.380	 193.745
 3900	  0.3936	 32.5962	  32.596	 195.045
 3926	  0.3956	 32.8137	  32.814	 196.345
 3952	  0.3956	 33.0300	  33.030	 197.645
 3978	  0.3968	 33.2475	  33.247	 198.945
 4004	  0.3980	 33.4650	  33.465	 200.245
 4030	  0.3988	 33.6812	  33.681	 201.545
 4056	  0.4000	 33.8975	  33.897	 202.845
 4082	  0.4000	 34.1150	  34.115	 204.145
 4108	  0.4004	 34.3312	  34.331	 205.445
 4134	  0.4016	 34.5487	  34.549	 206.745
 4160	  0.4024	 34.7663	  34.766	 208.045
 4186	  0.4024	 34.9837	  34.984	 209.345
 4212	  0.4040	 35.2012	  35.201	 210.645
 4238	  0.4048	 35.4188	  35.419	 211.945
 4264	  0.4056	 35.6362	  35.636	 213.245
 4290	  0.4068	 35.8537	  35.854	 214.545
 4316	  0.4076	 36.0725	  36.072	 215.845
 4342	  0.4088	 36.2887	  36.289	 217.145
 4368	  0.4092	 36.5062	  36.506	 218.445
 4394	  0.4092	 36.7238	  36.724	 219.745
 4420	  0.4116	 36.9400	  36.940	 221.045
 4446	  0.4112	 37.1562	  37.156	 222.345
 4472	  0.4124	 37.3737	  37.374	 223.645
 4498	  0.4132	 37.5900	  37.590	 224.945
 4524	  0.4132	 37.8062	  37.806	 226.245
 4550	  0.4140	 38.0238	  38.024	 227.545
 4576	  0.4152	 38.2400	  38.240	 228.845
 4602	  0.4152	 38.4587	  38.459	 230.145
 4628	  0.4164	 38.6763	  38.676	 231.445
 4654	  0.4168	 38.8937	  38.894	 232.745
 4680	  0.4176	 39.1112	  39.111	 234.045
 4706	  0.4176	 39.3300	  39.330	 235.345
 4732	  0.4200	 39.5475	  39.548	 236.645
 4758	  0.4196	 39.7663	  39.766	 237.945
 4784	  0.4204	 39.9837	  39.984	 239.245
 4810	  0.4208	 40.2025	  40.202	 240.545
 4836	  0.4216	 40.4200	  40.420	 241.845
 4862	  0.4224	 40.6375	  40.638	 243.145
 4888	  0.4232	 40.8537	  40.854	 244.445
 4914	  0.4236	 41.0713	  41.071	 245.745
 4940	  0.4236	 41.2887	  41.289	 247.045
 4966	  0.4248	 41.5050	  41.505	 248.345
 4992	  0.4260	 41.7212	  41.721	 249.645
 5018	  0.4260	 41.9375	  41.938	 250.945
 5044	  0.4264	 42.1537	  42.154	 252.245
 5070	  0.4276	 42.3700	  42.370	 253.545
 5096	  0.4280	 42.5863	  42.586	 254.845
 5122	  0.4292	 42.8025	  42.802	 256.145
 5148	  0.4288	 43.0200	  43.020	 257.445
 5174	  0.4300	 43.2388	  43.239	 258.745
 5200	  0.4296	 43.4575	  43.458	 260.045
 5226	  0.4312	 43.6750	  43.675	 261.345
 5252	  0.4316	 43.8937	  43.894	 262.645
 5278	  0.4316	 44.1100	  44.110	 263.945
 5304	  0.4332	 44.3275	  44.327	 265.245
 5330	  0.4336	 44.5462	  44.546	 266.545
 5356	  0.4336	 44.7625	  44.763	 267.845
 5382	  0.4340	 44.9800	  44.980	 269.145
 5408	  0.4352	 45.1962	  45.196	 270.445
 5434	  0.4356	 45.4137	  45.414	 271.745
 5460	  0.4360	 45.6300	  45.630	 273.045
 5486	  0.4360	 45.8475	  45.847	 274.345
 5512	  0.4368	 46.0637	  46.064	 275.645
 5538	  0.4384	 46.2800	  46.280	 276.945
 5564	  0.4388	 46.4975	  46.497	 278.245
 5590	  0.4388	 46.7150	  46.715	 279.545
 5616	  0.4392	 46.9325	  46.932	 280.845
 5642	  0.4392	 47.1488	  47.149	 282.145
 5668	  0.4404	 47.3662	  47.366	 283.445
 5694	  0.4404	 47.5837	  47.584	 284.745
 5720	  0.4416	 47.8025	  47.802	 286.045
 5746	  0.4416	 48.0200	  48.020	 287.345
 5772	  0.4420	 48.2375	  48.237	 288.645
 5798	  0.4424	 48.4562	  48.456	 289.945
 5824	  0.4420	 48.6737	  48.674	 291.245
 5850	  0.4420	 48.8913	  48.891	 292.545
 5876	  0.4428	 49.1075	  49.107	 293.845
 5902	  0.4136	 49.3250	  49.325	 295.145
 5928	  0.0528	 49.5425	  49.542	 296.445
 5954	  0.0028	 49.7587	  49.759	 297.745
 5980	  0.0032	 49.9750	  49.975	 299.045
 5986	  0.0032	 50.0250	  50.025	 299.345
ControlMode:	0
Rate:	 10.0000
(null)
4
step	1
0
5.000000
0.000000
1
1
0.500000
2
step	2
1
5.000000
0.000000
1
1
2.000000
3
step	3
5
2.000000
0.000000
1
0
30
4
step	4
8
0.000000
0.000000
0
0
0.000000
0
2