File: Dados - Tração/P2-lacre pratic 02.txt
0
Diameter:	   5.00
   1.00
Area:	  19.6350
GaugeLength:	  50.00
2009-1-1
A3
001
DataNumber:	3009
index	Load(kN)	Defor(mm)	Stroke(mm)	Time(s)
    0	  0.0100	  0.0088	   0.009	   0.045
   13	  0.0096	  0.1175	   0.117	   0.695
   26	  0.0100	  0.2262	   0.226	   1.345
   39	  0.0108	  0.3350	   0.335	   1.995
   52	  0.0116	  0.4437	   0.444	   2.645
   65	  0.0116	  0.5525	   0.553	   3.295
   78	  0.0132	  0.6600	   0.660	   3.945
   91	  0.0140	  0.7688	   0.769	   4.595
  104	  0.0140	  0.8775	   0.877	   5.245
  117	  0.0160	  0.9850	   0.985	   5.895
  130	  0.0160	  1.0938	   1.094	   6.545
  143	  0.0168	  1.2025	   1.202	   7.195
  156	  0.0184	  1.3112	   1.311	   7.845
  169	  0.0188	  1.4187	   1.419	   8.495
  182	  0.0196	  1.5275	   1.527	   9.145
  195	  0.0208	  1.6363	   1.636	   9.795
  208	  0.0212	  1.7437	   1.744	  10.445
  221	  0.0232	  1.8525	   1.852	  11.095
  234	  0.0248	  1.9612	   1.961	  11.745
  247	  0.0264	  2.0700	   2.070	  12.395
  260	  0.0268	  2.1788	   2.179	  13.045
  273	  0.0292	  2.2862	   2.286	  13.695
  286	  0.0304	  2.3950	   2.395	  14.345
  299	  0.0324	  2.5037	   2.504	  14.995
  312	  0.0344	  2.6125	   2.612	  15.645
  325	  0.0368	  2.7213	   2.721	  16.295
  338	  0.0388	  2.8287	   2.829	  16.945
  351	  0.0388	  2.9388	   2.939	  17.595
  364	  0.0416	  3.0450	   3.045	  18.245
  377	  0.0436	  3.1550	   3.155	  18.895
  390	  0.0452	  3.2637	   3.264	  19.545
  403	  0.0476	  3.3725	   3.372	  20.195
  416	  0.0500	  3.4825	   3.482	  20.845
  429	  0.0524	  3.5912	   3.591	  21.495
  442	  0.0540	  3.7012	   3.701	  22.145
  455	  0.0560	  3.8100	   3.810	  22.795
  468	  0.0580	  3.9187	   3.919	  23.445
  481	  0.0604	  4.0275	   4.027	  24.095
  494	  0.0616	  4.1363	   4.136	  24.745
  507	  0.0644	  4.2450	   4.245	  25.395
  520	  0.0672	  4.3537	   4.354	  26.045
  533	  0.0696	  4.4625	   4.463	  26.695
  546	  0.0708	  4.5700	   4.570	  27.345
  559	  0.0732	  4.6788	   4.679	  27.995
  572	  0.0752	  4.7875	   4.787	  28.645
  585	  0.0772	  4.8950	   4.895	  29.295
  598	  0.0792	  5.0037	   5.004	  29.945
  611	  0.0808	  5.1112	   5.111	  30.595
  624	  0.0828	  5.2200	   5.220	  31.245
  637	  0.0848	  5.3287	   5.329	  31.895
  650	  0.0872	  5.4375	   5.438	  32.545
  663	  0.0892	  5.5450	   5.545	  33.195
  676	  0.0916	  5.6537	   5.654	  33.845
  689	  0.0936	  5.7625	   5.762	  34.495
  702	  0.0952	  5.8700	   5.870	  35.145
  715	  0.0976	  5.9787	   5.979	  35.795
  728	  0.0988	  6.0875	   6.088	  36.445
  741	  0.1012	  6.1962	   6.196	  37.095
  754	  0.1032	  6.3050	   6.305	  37.745
  767	  0.1040	  6.4137	   6.414	  38.395
  780	  0.1068	  6.5225	   6.523	  39.045
  793	  0.1092	  6.6312	   6.631	  39.695
  806	  0.1104	  6.7400	   6.740	  40.345
  819	  0.1120	  6.8487	   6.849	  40.995
  832	  0.1148	  6.9575	   6.957	  41.645
  845	  0.1156	  7.0662	   7.066	  42.295
  858	  0.1172	  7.1737	   7.174	  42.945
  871	  0.1188	  7.2838	   7.284	  43.595
  884	  0.1200	  7.3925	   7.392	  44.245
  897	  0.1220	  7.5012	   7.501	  44.895
  910	  0.1236	  7.6112	   7.611	  45.545
  923	  0.1248	  7.7200	   7.720	  46.195
  936	  0.1260	  7.8287	   7.829	  46.845
  949	  0.1280	  7.9375	   7.938	  47.495
  962	  0.1296	  8.0462	   8.046	  48.145
  975	  0.1296	  8.1550	   8.155	  48.795
  988	  0.1320	  8.2625	   8.262	  49.445
 1001	  0.1332	  8.3725	   8.372	  50.095
 1014	  0.1352	  8.4812	   8.481	  50.745
 1027	  0.1360	  8.5887	   8.589	  51.395
 1040	  0.1372	  8.6975	   8.698	  52.045
 1053	  0.1384	  8.8062	   8.806	  52.695
 1066	  0.1396	  8.9150	   8.915	  53.345
 1079	  0.1404	  9.0237	   9.024	  53.995
 1092	  0.1416	  9.1325	   9.132	  54.645
 1105	  0.1428	  9.2413	   9.241	  55.295
 1118	  0.1432	  9.3500	   9.350	  55.945
 1131	  0.1444	  9.4587	   9.459	  56.595
 1144	  0.1456	  9.5662	   9.566	  57.245
 1157	  0.1468	  9.6750	   9.675	  57.895
 1170	  0.1488	  9.7837	   9.784	  58.545
 1183	  0.1492	  9.8925	   9.892	  59.195
 1196	  0.1492	 10.0012	  10.001	  59.845
 1209	  0.1504	 10.1100	  10.110	  60.495
 1222	  0.1516	 10.2188	  10.219	  61.145
 1235	  0.1536	 10.3275	  10.327	  61.795
 1248	  0.1536	 10.4350	  10.435	  62.445
 1261	  0.1548	 10.5437	  10.544	  63.095
 1274	  0.1564	 10.6525	  10.653	  63.745
 1287	  0.1576	 10.7612	  10.761	  64.395
 1300	  0.1572	 10.8700	  10.870	  65.045
 1313	  0.1596	 10.9788	  10.979	  65.695
 1326	  0.1604	 11.0875	  11.087	  66.345
 1339	  0.1616	 11.1962	  11.196	  66.995
 1352	  0.1624	 11.3062	  11.306	  67.645
 1365	  0.1620	 11.4137	  11.414	  68.295
 1378	  0.1624	 11.5237	  11.524	  68.945
 1391	  0.1632	 11.6325	  11.632	  69.595
 1404	  0.1644	 11.7413	  11.741	  70.245
 1417	  0.1656	 11.8500	  11.850	  70.895
 1430	  0.1668	 11.9587	  11.959	  71.545
 1443	  0.1680	 12.0675	  12.068	  72.195
 1456	  0.1684	 12.1762	  12.176	  72.845
 1469	  0.1692	 12.2850	  12.285	  73.495
 1482	  0.1696	 12.3938	  12.394	  74.145
 1495	  0.1708	 12.5025	  12.502	  74.795
 1508	  0.1716	 12.6112	  12.611	  75.445
 1521	  0.1724	 12.7200	  12.720	  76.095
 1534	  0.1724	 12.8287	  12.829	  76.745
 1547	  0.1724	 12.9362	  12.936	  77.395
 1560	  0.1744	 13.0450	  13.045	  78.045
 1573	  0.1748	 13.1537	  13.154	  78.695
 1586	  0.1748	 13.2625	  13.262	  79.345
 1599	  0.1756	 13.3713	  13.371	  79.995
 1612	  0.1768	 13.4800	  13.480	  80.645
 1625	  0.1772	 13.5875	  13.587	  81.295
 1638	  0.1772	 13.6975	  13.697	  81.945
 1651	  0.1784	 13.8062	  13.806	  82.595
 1664	  0.1796	 13.9137	  13.914	  83.245
 1677	  0.1808	 14.0212	  14.021	  83.895
 1690	  0.1800	 14.1300	  14.130	  84.545
 1703	  0.1812	 14.2375	  14.237	  85.195
 1716	  0.1820	 14.3462	  14.346	  85.845
 1729	  0.1828	 14.4550	  14.455	  86.495
 1742	  0.1832	 14.5625	  14.562	  87.145
 1755	  0.1844	 14.6712	  14.671	  87.795
 1768	  0.1848	 14.7800	  14.780	  88.445
 1781	  0.1848	 14.8888	  14.889	  89.095
 1794	  0.1856	 14.9975	  14.997	  89.745
 1807	  0.1852	 15.1062	  15.106	  90.395
 1820	  0.1864	 15.2137	  15.214	  91.045
 1833	  0.1868	 15.3225	  15.322	  91.695
 1846	  0.1876	 15.4325	  15.432	  92.345
 1859	  0.1880	 15.5412	  15.541	  92.995
 1872	  0.1888	 15.6500	  15.650	  93.645
 1885	  0.1900	 15.7587	  15.759	  94.295
 1898	  0.1892	 15.8675	  15.867	  94.945
 1911	  0.1896	 15.9762	  15.976	  95.595
 1924	  0.1908	 16.0850	  16.085	  96.245
 1937	  0.1908	 16.1938	  16.194	  96.895
 1950	  0.1912	 16.3025	  16.302	  97.545
 1963	  0.1916	 16.4112	  16.411	  98.195
 1976	  0.1928	 16.5200	  16.520	  98.845
 1989	  0.1928	 16.6287	  16.629	  99.495
 2002	  0.1940	 16.7375	  16.737	 100.145
 2015	  0.1944	 16.8450	  16.845	 100.795
 2028	  0.1948	 16.9537	  16.954	 101.445
 2041	  0.1964	 17.0625	  17.062	 102.095
 2054	  0.1952	 17.1712	  17.171	 102.745
 2067	  0.1968	 17.2800	  17.280	 103.395
 2080	  0.1964	 17.3888	  17.389	 104.045
 2093	  0.1976	 17.4963	  17.496	 104.695
 2106	  0.1968	 17.6050	  17.605	 105.345
 2119	  0.1980	 17.7137	  17.714	 105.995
 2132	  0.1968	 17.8212	  17.821	 106.645
 2145	  0.1980	 17.9300	  17.930	 107.295
 2158	  0.1996	 18.0387	  18.039	 107.945
 2171	  0.1996	 18.1462	  18.146	 108.595
 2184	  0.2000	 18.2550	  18.255	 109.245
 2197	  0.2004	 18.3638	  18.364	 109.895
 2210	  0.2012	 18.4713	  18.471	 110.545
 2223	  0.2016	 18.5800	  18.580	 111.195
 2236	  0.2016	 18.6887	  18.689	 111.845
 2249	  0.2020	 18.7975	  18.797	 112.495
 2262	  0.2016	 18.9062	  18.906	 113.145
 2275	  0.2028	 19.0150	  19.015	 113.795
 2288	  0.2024	 19.1237	  19.124	 114.445
 2301	  0.2032	 19.2325	  19.233	 115.095
 2314	  0.2044	 19.3425	  19.342	 115.745
 2327	  0.2044	 19.4513	  19.451	 116.395
 2340	  0.2056	 19.5600	  19.560	 117.045
 2353	  0.2048	 19.6687	  19.669	 117.695
 2366	  0.2052	 19.7787	  19.779	 118.345
 2379	  0.2052	 19.8862	  19.886	 118.995
 2392	  0.2060	 19.9950	  19.995	 119.645
 2405	  0.2060	 20.1050	  20.105	 120.295
 2418	  0.2064	 20.2137	  20.214	 120.945
 2431	  0.2068	 20.3225	  20.323	 121.595
 2444	  0.2084	 20.4312	  20.431	 122.245
 2457	  0.2080	 20.5400	  20.540	 122.895
 2470	  0.2088	 20.6488	  20.649	 123.545
 2483	  0.2088	 20.7575	  20.757	 124.195
 2496	  0.2088	 20.8662	  20.866	 124.845
 2509	  0.2084	 20.9750	  20.975	 125.495
 2522	  0.2100	 21.0825	  21.083	 126.145
 2535	  0.2100	 21.1925	  21.192	 126.795
 2548	  0.2096	 21.3000	  21.300	 127.445
 2561	  0.2104	 21.4087	  21.409	 128.095
 2574	  0.2104	 21.5175	  21.517	 128.745
 2587	  0.2112	 21.6250	  21.625	 129.395
 2600	  0.2116	 21.7337	  21.734	 130.045
 2613	  0.2128	 21.8425	  21.842	 130.695
 2626	  0.2124	 21.9500	  21.950	 131.345
 2639	  0.2124	 22.0588	  22.059	 131.995
 2652	  0.2128	 22.1675	  22.167	 132.645
 2665	  0.2132	 22.2750	  22.275	 133.295
 2678	  0.2136	 22.3837	  22.384	 133.945
 2691	  0.2140	 22.4912	  22.491	 134.595
 2704	  0.2136	 22.6000	  22.600	 135.245
 2717	  0.2136	 22.7087	  22.709	 135.895
 2730	  0.2136	 22.8162	  22.816	 136.545
 2743	  0.2140	 22.9250	  22.925	 137.195
 2756	  0.2144	 23.0337	  23.034	 137.845
 2769	  0.2144	 23.1412	  23.141	 138.495
 2782	  0.2144	 23.2512	  23.251	 139.145
 2795	  0.2144	 23.3600	  23.360	 139.795
 2808	  0.2144	 23.4688	  23.469	 140.445
 2821	  0.2152	 23.5775	  23.577	 141.095
 2834	  0.2152	 23.6875	  23.688	 141.745
 2847	  0.2160	 23.7962	  23.796	 142.395
 2860	  0.2156	 23.9062	  23.906	 143.045
 2873	  0.2160	 24.0150	  24.015	 143.695
 2886	  0.2152	 24.1237	  24.124	 144.345
 2899	  0.2164	 24.2325	  24.233	 144.995
 2912	  0.2164	 24.3412	  24.341	 145.645
 2925	  0.2168	 24.4500	  24.450	 146.295
 2938	  0.2164	 24.5588	  24.559	 146.945
 2951	  0.2148	 24.6675	  24.667	 147.595
 2964	  0.0024	 24.7762	  24.776	 148.245
 2977	  0.0024	 24.8850	  24.885	 148.895
 2990	  0.0020	 24.9937	  24.994	 149.545
 3003	  0.0024	 25.1025	  25.102	 150.195
 3008	  0.0024	 25.1437	  25.144	 150.445
ControlMode:	0
Rate:	 10.0000
(null)
4
step	1
0
5.000000
0.000000
1
1
0.500000
2
step	2
1
5.000000
0.000000
1
1
2.000000
3
step	3
5
2.000000
0.000000
1
0
30
4
step	4
8
0.000000
0.000000
0
0
0.000000
0
2