File: Laboratório de Resistência dos Materiais/Dados - Compressão/P2 - Mac 01.txt
0
Diameter:	   5.00
   1.00
Area:	  19.6350
GaugeLength:	  50.00
2009-1-1
A3
001
DataNumber:	336
index	Load(kN)	Defor(mm)	Stroke(mm)	Time(s)
    0	  0.0080	  0.0088	   0.009	   0.045
    2	  0.0130	  0.0250	   0.025	   0.145
    4	  0.0200	  0.0412	   0.041	   0.245
    6	  0.0290	  0.0587	   0.059	   0.345
    8	  0.0390	  0.0750	   0.075	   0.445
   10	  0.0500	  0.0912	   0.091	   0.545
   12	  0.0640	  0.1075	   0.107	   0.645
   14	  0.0800	  0.1250	   0.125	   0.745
   16	  0.0970	  0.1412	   0.141	   0.845
   18	  0.1150	  0.1575	   0.157	   0.945
   20	  0.1330	  0.1750	   0.175	   1.045
   22	  0.1520	  0.1912	   0.191	   1.145
   24	  0.1720	  0.2075	   0.207	   1.245
   26	  0.1960	  0.2237	   0.224	   1.345
   28	  0.2210	  0.2412	   0.241	   1.445
   30	  0.2510	  0.2575	   0.257	   1.545
   32	  0.2820	  0.2738	   0.274	   1.645
   34	  0.3150	  0.2912	   0.291	   1.745
   36	  0.3490	  0.3075	   0.308	   1.845
   38	  0.3870	  0.3237	   0.324	   1.945
   40	  0.4250	  0.3400	   0.340	   2.045
   42	  0.4630	  0.3562	   0.356	   2.145
   44	  0.5020	  0.3738	   0.374	   2.245
   46	  0.5390	  0.3900	   0.390	   2.345
   48	  0.5770	  0.4062	   0.406	   2.445
   50	  0.6150	  0.4237	   0.424	   2.545
   52	  0.6530	  0.4400	   0.440	   2.645
   54	  0.6920	  0.4562	   0.456	   2.745
   56	  0.7280	  0.4725	   0.472	   2.845
   58	  0.7650	  0.4900	   0.490	   2.945
   60	  0.8030	  0.5062	   0.506	   3.045
   62	  0.8400	  0.5225	   0.522	   3.145
   64	  0.8770	  0.5387	   0.539	   3.245
   66	  0.9150	  0.5562	   0.556	   3.345
   68	  0.9520	  0.5725	   0.572	   3.445
   70	  0.9900	  0.5888	   0.589	   3.545
   72	  1.0270	  0.6050	   0.605	   3.645
   74	  1.0640	  0.6225	   0.623	   3.745
   76	  1.1000	  0.6387	   0.639	   3.845
   78	  1.1360	  0.6550	   0.655	   3.945
   80	  1.1730	  0.6725	   0.673	   4.045
   82	  1.2100	  0.6887	   0.689	   4.145
   84	  1.2480	  0.7050	   0.705	   4.245
   86	  1.2850	  0.7225	   0.722	   4.345
   88	  1.3220	  0.7387	   0.739	   4.445
   90	  1.3610	  0.7550	   0.755	   4.545
   92	  1.4010	  0.7725	   0.772	   4.645
   94	  1.4420	  0.7887	   0.789	   4.745
   96	  1.4840	  0.8050	   0.805	   4.845
   98	  1.5270	  0.8225	   0.822	   4.945
  100	  1.5690	  0.8388	   0.839	   5.045
  102	  1.6110	  0.8550	   0.855	   5.145
  104	  1.6540	  0.8725	   0.873	   5.245
  106	  1.6960	  0.8887	   0.889	   5.345
  108	  1.7390	  0.9050	   0.905	   5.445
  110	  1.7820	  0.9225	   0.922	   5.545
  112	  1.8250	  0.9387	   0.939	   5.645
  114	  1.8710	  0.9562	   0.956	   5.745
  116	  1.9180	  0.9725	   0.972	   5.845
  118	  1.9650	  0.9887	   0.989	   5.945
  120	  2.0140	  1.0050	   1.005	   6.045
  122	  2.0610	  1.0225	   1.022	   6.145
  124	  2.1100	  1.0387	   1.039	   6.245
  126	  2.1600	  1.0550	   1.055	   6.345
  128	  2.2090	  1.0725	   1.072	   6.445
  130	  2.2590	  1.0888	   1.089	   6.545
  132	  2.3080	  1.1062	   1.106	   6.645
  134	  2.3590	  1.1225	   1.122	   6.745
  136	  2.4090	  1.1387	   1.139	   6.845
  138	  2.4570	  1.1562	   1.156	   6.945
  140	  2.5060	  1.1725	   1.173	   7.045
  142	  2.5550	  1.1888	   1.189	   7.145
  144	  2.6030	  1.2062	   1.206	   7.245
  146	  2.6510	  1.2225	   1.222	   7.345
  148	  2.6990	  1.2387	   1.239	   7.445
  150	  2.7450	  1.2563	   1.256	   7.545
  152	  2.7920	  1.2725	   1.272	   7.645
  154	  2.8380	  1.2887	   1.289	   7.745
  156	  2.8840	  1.3062	   1.306	   7.845
  158	  2.9280	  1.3225	   1.322	   7.945
  160	  2.9640	  1.3388	   1.339	   8.045
  162	  3.0090	  1.3562	   1.356	   8.145
  164	  3.0550	  1.3725	   1.372	   8.245
  166	  3.1010	  1.3900	   1.390	   8.345
  168	  3.1450	  1.4062	   1.406	   8.445
  170	  3.1900	  1.4225	   1.423	   8.545
  172	  3.2310	  1.4400	   1.440	   8.645
  174	  3.2720	  1.4562	   1.456	   8.745
  176	  3.3150	  1.4725	   1.472	   8.845
  178	  3.3560	  1.4887	   1.489	   8.945
  180	  3.3970	  1.5063	   1.506	   9.045
  182	  1.6990	  1.5225	   1.522	   9.145
  184	  1.7370	  1.5400	   1.540	   9.245
  186	  1.7820	  1.5562	   1.556	   9.345
  188	  1.8250	  1.5738	   1.574	   9.445
  190	  1.8680	  1.5900	   1.590	   9.545
  192	  1.9070	  1.6075	   1.607	   9.645
  194	  1.9430	  1.6237	   1.624	   9.745
  196	  1.9780	  1.6413	   1.641	   9.845
  198	  2.0100	  1.6575	   1.657	   9.945
  200	  2.0120	  1.6750	   1.675	  10.045
  202	  2.0080	  1.6912	   1.691	  10.145
  204	  2.0330	  1.7075	   1.707	  10.245
  206	  2.0570	  1.7250	   1.725	  10.345
  208	  2.0790	  1.7412	   1.741	  10.445
  210	  2.0820	  1.7575	   1.757	  10.545
  212	  2.0940	  1.7750	   1.775	  10.645
  214	  2.1050	  1.7912	   1.791	  10.745
  216	  2.1170	  1.8087	   1.809	  10.845
  218	  2.1180	  1.8250	   1.825	  10.945
  220	  2.1240	  1.8425	   1.842	  11.045
  222	  2.1330	  1.8587	   1.859	  11.145
  224	  2.0430	  1.8750	   1.875	  11.245
  226	  2.0180	  1.8925	   1.892	  11.345
  228	  2.0090	  1.9087	   1.909	  11.445
  230	  2.0030	  1.9262	   1.926	  11.545
  232	  1.9990	  1.9425	   1.942	  11.645
  234	  1.9550	  1.9600	   1.960	  11.745
  236	  1.2510	  1.9762	   1.976	  11.845
  238	  1.1130	  1.9925	   1.992	  11.945
  240	  1.1020	  2.0100	   2.010	  12.045
  242	  1.0980	  2.0262	   2.026	  12.145
  244	  1.0920	  2.0438	   2.044	  12.245
  246	  1.0880	  2.0600	   2.060	  12.345
  248	  1.0840	  2.0775	   2.077	  12.445
  250	  1.0770	  2.0938	   2.094	  12.545
  252	  1.0630	  2.1100	   2.110	  12.645
  254	  1.0580	  2.1275	   2.128	  12.745
  256	  1.0510	  2.1437	   2.144	  12.845
  258	  1.0440	  2.1612	   2.161	  12.945
  260	  1.0330	  2.1775	   2.178	  13.045
  262	  1.0230	  2.1937	   2.194	  13.145
  264	  1.0110	  2.2113	   2.211	  13.245
  266	  0.9850	  2.2275	   2.227	  13.345
  268	  0.9600	  2.2450	   2.245	  13.445
  270	  0.6970	  2.2613	   2.261	  13.545
  272	  0.6020	  2.2787	   2.279	  13.645
  274	  0.5750	  2.2950	   2.295	  13.745
  276	  0.5580	  2.3112	   2.311	  13.845
  278	  0.5450	  2.3287	   2.329	  13.945
  280	  0.5230	  2.3450	   2.345	  14.045
  282	  0.4900	  2.3625	   2.362	  14.145
  284	  0.4440	  2.3787	   2.379	  14.245
  286	  0.3950	  2.3963	   2.396	  14.345
  288	  0.2590	  2.4125	   2.412	  14.445
  290	  0.2170	  2.4288	   2.429	  14.545
  292	  0.2020	  2.4462	   2.446	  14.645
  294	  0.1940	  2.4625	   2.462	  14.745
  296	  0.1710	  2.4800	   2.480	  14.845
  298	  0.1340	  2.4962	   2.496	  14.945
  300	  0.1210	  2.5137	   2.514	  15.045
  302	  0.1120	  2.5300	   2.530	  15.145
  304	  0.1040	  2.5462	   2.546	  15.245
  306	  0.0980	  2.5638	   2.564	  15.345
  308	  0.0910	  2.5800	   2.580	  15.445
  310	  0.0870	  2.5963	   2.596	  15.545
  312	  0.0830	  2.6137	   2.614	  15.645
  314	  0.0800	  2.6300	   2.630	  15.745
  316	  0.0790	  2.6475	   2.648	  15.845
  318	  0.0770	  2.6637	   2.664	  15.945
  320	  0.0750	  2.6812	   2.681	  16.045
  322	  0.0730	  2.6975	   2.697	  16.145
  324	  0.0710	  2.7137	   2.714	  16.245
  326	  0.0700	  2.7313	   2.731	  16.345
  328	  0.0690	  2.7475	   2.747	  16.445
  330	  0.0660	  2.7650	   2.765	  16.545
  332	  0.0640	  2.7812	   2.781	  16.645
  334	  0.0630	  2.7975	   2.797	  16.745
  335	  0.0630	  2.8062	   2.806	  16.795
ControlMode:	0
Rate:	 10.0000
(null)
4
step	1
0
5.000000
0.000000
1
1
0.500000
2
step	2
1
5.000000
0.000000
1
1
2.000000
3
step	3
5
2.000000
0.000000
1
0
30
4
step	4
8
0.000000
0.000000
0
0
0.000000
0
2